%OpenBCI Raw EEG Data
%
%Sample Rate = 250.0 Hz
%First Column = SampleIndex
%Other Columns = EEG data in microvolts
37207, -1752.00, -1750.99, -1753.23, -1754.28, -1751.57, -1748.08, -1750.30, -1749.49, 0.00
37208, -1744.60, -1743.46, -1746.05, -1746.92, -1744.42, -1740.55, -1743.06, -1741.96, 0.00
37207, -1752.00, -1750.99, -1753.23, -1754.28, -1751.57, -1748.08, -1750.30, -1749.49, 0.00
37208, -1744.60, -1743.46, -1746.05, -1746.92, -1744.42, -1740.55, -1743.06, -1741.96, 0.00
1, 1476.65, 1472.22, 1475.77, 1474.52, 1472.89, 1472.42, 1473.58, 1475.28, 0.00
2, 1278.88, 1275.08, 1278.30, 1277.16, 1275.73, 1275.30, 1276.44, 1277.74, 0.00
3, 1802.47, 1797.17, 1801.42, 1800.12, 1798.18, 1797.35, 1799.20, 1801.01, 0.00
4, 2203.84, 2197.53, 2202.90, 2201.09, 2198.52, 2197.74, 2199.86, 2201.83, 0.00
5, 2048.47, 2042.64, 2047.35, 2045.97, 2043.53, 2042.93, 2044.85, 2046.57, 0.00
6, 1693.06, 1688.41, 1692.47, 1691.20, 1689.39, 1688.58, 1690.35, 1691.74, 0.00
7, 1609.86, 1605.73, 1609.33, 1608.12, 1606.49, 1605.59, 1607.18, 1608.81, 0.00
8, 1795.14, 1790.35, 1794.55, 1792.99, 1791.05, 1790.62, 1791.74, 1793.68, 0.00
9, 1936.44, 1930.63, 1935.55, 1933.87, 1931.93, 1931.15, 1932.62, 1934.66, 0.00
10, 1884.90, 1879.45, 1884.21, 1882.53, 1880.45, 1879.67, 1881.30, 1883.38, 0.00
11, 1768.65, 1763.55, 1767.96, 1766.50, 1764.58, 1764.20, 1765.45, 1767.29, 0.00
12, 1738.00, 1732.60, 1737.00, 1735.70, 1733.76, 1733.36, 1734.70, 1736.13, 0.00
13, 1783.09, 1777.66, 1782.17, 1781.05, 1778.84, 1778.30, 1779.60, 1781.41, 0.00
14, 1814.65, 1809.40, 1813.82, 1812.68, 1810.87, 1809.89, 1811.32, 1813.49, 0.00
15, 1803.36, 1797.91, 1802.47, 1801.24, 1799.32, 1798.35, 1799.85, 1801.82, 0.00
16, 1782.37, 1777.08, 1781.37, 1780.09, 1778.39, 1777.37, 1778.82, 1780.67, 0.00
17, 1773.48, 1768.16, 1772.67, 1771.20, 1769.39, 1768.54, 1770.08, 1771.96, 0.00
18, 1766.57, 1761.29, 1765.88, 1764.25, 1762.57, 1761.56, 1763.33, 1765.12, 0.00
19, 1757.72, 1752.64, 1756.82, 1755.17, 1753.43, 1752.94, 1754.50, 1756.27, 0.00
20, 1758.90, 1753.83, 1758.17, 1756.49, 1754.92, 1754.34, 1755.64, 1757.61, 0.00
21, 1770.03, 1764.98, 1769.36, 1767.67, 1765.83, 1765.30, 1766.79, 1768.78, 0.00
22, 1769.48, 1764.31, 1768.47, 1767.04, 1765.34, 1764.67, 1766.19, 1768.11, 0.00
23, 1747.48, 1742.52, 1746.74, 1745.34, 1743.50, 1742.70, 1744.49, 1746.19, 0.00
24, 1726.83, 1722.20, 1726.09, 1724.75, 1722.94, 1722.02, 1723.68, 1725.55, 0.00
25, 1730.72, 1725.87, 1729.89, 1728.57, 1726.67, 1725.98, 1727.41, 1729.35, 0.00
26, 1748.51, 1743.48, 1747.84, 1746.36, 1744.42, 1743.61, 1745.11, 1747.10, 0.00
27, 1749.92, 1744.91, 1749.02, 1747.53, 1745.60, 1745.05, 1746.54, 1748.17, 0.00
28, 1727.28, 1722.16, 1726.22, 1724.93, 1723.12, 1722.40, 1723.95, 1725.58, 0.00
29, 1706.33, 1701.01, 1705.15, 1703.58, 1702.13, 1701.37, 1702.89, 1704.45, 0.00
30, 1708.84, 1703.87, 1707.92, 1706.31, 1704.97, 1703.92, 1705.75, 1707.16, 0.00
31, 1724.12, 1719.14, 1723.16, 1721.89, 1720.35, 1719.27, 1720.97, 1722.51, 0.00
32, 1725.09, 1719.99, 1724.12, 1722.69, 1721.15, 1720.17, 1721.67, 1723.68, 0.00
33, 1705.77, 1701.03, 1705.28, 1703.65, 1702.17, 1701.28, 1702.42, 1704.48, 0.00
34, 1687.82, 1683.13, 1687.18, 1685.79, 1683.98, 1683.33, 1684.81, 1686.46, 0.00
35, 1688.81, 1683.98, 1688.00, 1686.73, 1684.92, 1684.20, 1685.59, 1687.47, 0.00
36, 1699.38, 1694.53, 1698.55, 1697.53, 1695.54, 1694.60, 1696.12, 1697.95, 0.00
37, 1699.34, 1694.62, 1698.58, 1697.19, 1695.27, 1694.80, 1696.34, 1697.84, 0.00
38, 1684.14, 1679.53, 1683.51, 1682.24, 1680.36, 1679.64, 1681.03, 1683.09, 0.00
39, 1670.01, 1665.29, 1669.14, 1668.07, 1666.21, 1665.38, 1666.75, 1668.51, 0.00
40, 1669.30, 1664.76, 1668.62, 1667.24, 1665.61, 1664.76, 1666.19, 1667.73, 0.00
41, 1675.67, 1671.11, 1674.73, 1673.30, 1671.89, 1670.90, 1672.54, 1674.26, 0.00
42, 1674.37, 1669.63, 1673.43, 1672.11, 1670.59, 1669.59, 1671.20, 1672.71, 0.00
43, 1662.90, 1658.05, 1662.08, 1660.58, 1659.13, 1658.19, 1659.97, 1661.45, 0.00
44, 1651.79, 1646.88, 1651.15, 1649.65, 1648.02, 1647.19, 1648.80, 1650.36, 0.00
45, 1649.63, 1644.62, 1648.93, 1647.59, 1645.67, 1645.29, 1646.72, 1648.51, 0.00
46, 1652.44, 1647.57, 1651.95, 1650.30, 1648.55, 1648.08, 1649.31, 1651.30, 0.00
47, 1649.98, 1645.47, 1649.76, 1648.28, 1646.47, 1645.62, 1647.03, 1649.04, 0.00
48, 1641.06, 1636.77, 1640.62, 1639.23, 1637.58, 1636.68, 1638.05, 1640.15, 0.00
49, 1632.59, 1628.23, 1631.95, 1630.81, 1628.91, 1628.39, 1629.42, 1631.30, 0.00
50, 1629.75, 1625.26, 1629.20, 1627.83, 1626.13, 1625.31, 1626.67, 1628.37, 0.00
51, 1630.11, 1625.40, 1629.35, 1628.28, 1626.22, 1625.53, 1626.76, 1628.64, 0.00
52, 1627.14, 1622.47, 1626.40, 1625.37, 1623.38, 1622.80, 1623.94, 1625.62, 0.00
53, 1620.08, 1615.34, 1619.38, 1617.89, 1616.23, 1615.49, 1616.70, 1618.38, 0.00
54, 1612.97, 1608.19, 1612.23, 1610.89, 1609.35, 1608.43, 1609.84, 1611.54, 0.00
55, 1609.66, 1605.06, 1609.10, 1607.63, 1606.29, 1605.17, 1606.64, 1608.32, 0.00
56, 1608.19, 1603.47, 1607.76, 1606.31, 1604.92, 1604.01, 1605.48, 1606.98, 0.00
57, 1604.81, 1600.23, 1604.50, 1602.93, 1601.61, 1600.74, 1602.06, 1603.74, 0.00
58, 1599.00, 1594.22, 1598.42, 1596.76, 1595.42, 1594.55, 1595.94, 1597.79, 0.00
59, 1592.92, 1588.43, 1592.34, 1590.84, 1589.30, 1588.69, 1589.81, 1591.76, 0.00
60, 1094.56, 1089.94, 1093.69, 1092.37, 1091.12, 1090.14, 1091.37, 1093.16, 0.00
61, -831.48, -836.47, -833.36, -833.94, -833.94, -834.97, -834.41, -833.61, 0.00
62, -1244.01, -1249.28, -1246.47, -1246.74, -1246.36, -1247.58, -1246.87, -1246.47, 0.00
63, -2022.52, -2028.02, -2025.29, -2025.27, -2024.42, -2025.87, -2025.13, -2025.29, 0.00
64, -2694.19, -2699.82, -2697.12, -2697.03, -2695.69, -2697.01, -2696.54, -2697.16, 0.00
65, -2505.65, -2511.22, -2508.63, -2508.63, -2507.40, -2508.78, -2507.98, -2508.36, 0.00
66, -1949.32, -1954.64, -1951.96, -1952.22, -1951.17, -1952.54, -1951.75, -1951.78, 0.00
67, -1782.82, -1788.25, -1785.14, -1785.66, -1785.01, -1786.15, -1785.08, -1785.12, 0.00
68, -2056.36, -2061.61, -2058.98, -2059.04, -2058.15, -2059.53, -2058.44, -2058.89, 0.00
69, -2296.78, -2302.18, -2299.26, -2299.37, -2298.18, -2299.70, -2298.68, -2299.30, 0.00
70, -2240.02, -2245.41, -2242.71, -2242.75, -2241.63, -2243.13, -2242.04, -2242.71, 0.00
71, -2059.04, -2064.30, -2061.75, -2061.81, -2060.83, -2062.37, -2061.37, -2061.68, 0.00
72, -1996.95, -2002.20, -1999.72, -1999.81, -1998.74, -2000.41, -1999.41, -1999.68, 0.00
73, -2062.46, -2067.94, -2065.10, -2065.23, -2064.30, -2065.93, -2064.99, -2065.08, 0.00
74, -2121.38, -2126.63, -2123.80, -2124.04, -2123.21, -2124.71, -2123.97, -2123.77, 0.00
75, -2113.54, -2118.79, -2115.86, -2116.24, -2115.26, -2116.46, -2115.88, -2115.93, 0.00
76, -2081.80, -2087.27, -2084.39, -2084.75, -2083.76, -2085.17, -2084.37, -2084.32, 0.00
77, -2064.47, -2069.82, -2067.16, -2067.22, -2066.42, -2067.58, -2066.91, -2066.80, 0.00
78, -2053.81, -2058.89, -2056.23, -2056.38, -2055.44, -2056.54, -2056.02, -2056.11, 0.00
79, -2043.80, -2049.01, -2046.68, -2046.59, -2045.61, -2047.08, -2046.28, -2046.48, 0.00
80, -2050.37, -2055.73, -2053.19, -2053.07, -2052.11, -2053.32, -2052.61, -2052.81, 0.00
81, -2069.44, -2074.76, -2072.03, -2072.25, -2071.11, -2072.45, -2071.58, -2071.83, 0.00
82, -2069.03, -2074.17, -2071.34, -2071.49, -2070.46, -2071.92, -2071.16, -2071.29, 0.00
83, -2036.40, -2041.36, -2038.88, -2039.10, -2037.99, -2039.53, -2038.39, -2038.55, 0.00
84, -2006.40, -2011.68, -2008.95, -2009.13, -2008.15, -2009.73, -2008.71, -2008.77, 0.00
85, -2014.61, -2019.66, -2016.84, -2017.13, -2016.08, -2017.71, -2016.64, -2016.98, 0.00
86, -2043.87, -2048.98, -2046.19, -2046.46, -2045.85, -2047.13, -2046.08, -2046.50, 0.00
87, -2047.82, -2053.23, -2050.41, -2050.64, -2049.59, -2051.17, -2050.15, -2050.75, 0.00
88, -2014.72, -2019.99, -2017.31, -2017.31, -2016.57, -2017.83, -2017.07, -2017.29, 0.00
89, -1983.61, -1988.68, -1986.02, -1986.09, -1985.51, -1986.71, -1985.93, -1985.73, 0.00
90, -1989.24, -1994.02, -1991.81, -1991.83, -1990.94, -1992.30, -1991.63, -1991.61, 0.00
91, -2014.88, -2019.86, -2017.51, -2017.33, -2016.44, -2017.92, -2017.42, -2017.20, 0.00
92, -2018.72, -2023.64, -2021.38, -2021.29, -2020.24, -2021.85, -2021.09, -2021.34, 0.00
93, -1991.12, -1996.19, -1993.95, -1993.86, -1992.84, -1994.49, -1993.51, -1993.84, 0.00
94, -1964.74, -1970.26, -1967.56, -1967.45, -1966.62, -1967.91, -1967.09, -1967.62, 0.00
95, -1967.33, -1972.70, -1969.93, -1970.08, -1969.01, -1970.51, -1969.50, -1969.84, 0.00
96, -1985.93, -1991.07, -1988.46, -1988.39, -1987.47, -1988.90, -1987.99, -1988.43, 0.00
97, -1988.10, -1993.19, -1990.47, -1990.62, -1989.71, -1990.87, -1990.38, -1990.40, 0.00
98, -1966.95, -1971.96, -1969.37, -1969.39, -1968.41, -1969.90, -1969.12, -1969.32, 0.00
99, -1946.26, -1951.40, -1949.00, -1948.89, -1947.69, -1949.43, -1948.54, -1948.87, 0.00
100, -1946.17, -1951.62, -1949.25, -1948.89, -1947.95, -1949.54, -1948.49, -1949.05, 0.00
101, -1957.68, -1963.00, -1960.56, -1960.31, -1959.35, -1960.99, -1960.02, -1960.29, 0.00
102, -1958.19, -1963.53, -1960.83, -1960.83, -1959.71, -1961.28, -1960.16, -1960.54, 0.00
103, -1942.30, -1947.48, -1944.94, -1945.03, -1944.09, -1945.45, -1944.58, -1944.60, 0.00
104, -1926.88, -1931.68, -1929.40, -1929.38, -1928.22, -1929.83, -1929.22, -1929.11, 0.00
105, -1925.36, -1930.05, -1927.86, -1927.93, -1926.72, -1928.35, -1927.44, -1927.70, 0.00
106, -1931.28, -1936.06, -1933.87, -1933.94, -1932.82, -1934.41, -1933.56, -1933.65, 0.00
107, -1929.92, -1934.92, -1932.60, -1932.26, -1931.48, -1933.07, -1932.20, -1932.49, 0.00
108, -1917.89, -1922.92, -1920.57, -1920.60, -1919.46, -1921.15, -1920.31, -1920.51, 0.00
109, -1905.78, -1911.05, -1908.37, -1908.64, -1907.68, -1909.26, -1908.37, -1908.32, 0.00
110, -1903.03, -1908.44, -1905.60, -1905.69, -1904.84, -1906.16, -1905.33, -1905.49, 0.00
111, -1905.40, -1910.58, -1907.94, -1907.83, -1907.10, -1908.59, -1907.72, -1907.68, 0.00
112, -1903.14, -1908.17, -1905.78, -1905.64, -1904.64, -1906.16, -1905.26, -1905.46, 0.00
113, -1894.06, -1899.07, -1896.43, -1896.43, -1895.45, -1896.81, -1896.03, -1896.30, 0.00
114, -1884.74, -1889.46, -1886.87, -1886.89, -1886.00, -1887.27, -1886.73, -1886.93, 0.00
115, -1881.12, -1885.79, -1883.20, -1883.25, -1882.22, -1883.76, -1883.11, -1883.25, 0.00
116, -1880.85, -1885.55, -1883.04, -1883.47, -1881.93, -1883.29, -1882.87, -1883.13, 0.00
117, -1877.48, -1882.44, -1879.80, -1880.14, -1879.00, -1880.41, -1879.87, -1879.83, 0.00
118, -1869.83, -1874.91, -1872.16, -1872.58, -1871.15, -1872.85, -1872.00, -1872.43, 0.00
119, -1862.30, -1867.22, -1864.54, -1864.96, -1863.49, -1865.43, -1864.20, -1864.65, 0.00
120, -1858.28, -1863.20, -1860.69, -1860.85, -1859.73, -1861.43, -1860.27, -1860.65, 0.00
121, -1856.36, -1861.14, -1858.61, -1858.95, -1857.77, -1859.51, -1858.41, -1858.84, 0.00
122, -1852.74, -1857.41, -1854.95, -1855.24, -1854.14, -1855.82, -1854.61, -1855.22, 0.00
123, -1846.28, -1851.08, -1848.76, -1848.73, -1847.91, -1849.18, -1848.22, -1848.73, 0.00
124, -1344.90, -1349.51, -1347.12, -1347.27, -1346.78, -1347.74, -1346.83, -1347.16, 0.00
125, 582.78, 578.75, 581.68, 580.72, 580.23, 579.47, 580.56, 581.15, 0.00
126, 994.81, 990.83, 994.03, 993.00, 992.10, 991.30, 992.60, 993.62, 0.00
127, 1772.16, 1768.34, 1771.76, 1770.37, 1769.07, 1768.31, 1769.79, 1771.08, 0.00
128, 2443.92, 2440.50, 2444.19, 2442.35, 2440.59, 2439.98, 2441.39, 2443.16, 0.00
129, 2257.37, 2253.82, 2257.57, 2256.05, 2254.17, 2253.19, 2254.66, 2256.70, 0.00
130, 1702.51, 1698.78, 1702.24, 1700.92, 1699.49, 1698.62, 1699.78, 1701.50, 0.00
131, 1535.88, 1532.19, 1535.45, 1534.22, 1533.13, 1532.14, 1533.24, 1534.76, 0.00
132, 1808.68, 1804.93, 1808.35, 1807.18, 1805.69, 1804.86, 1806.27, 1807.76, 0.00
133, 2049.21, 2045.72, 2049.07, 2047.75, 2046.15, 2045.63, 2046.91, 2048.43, 0.00
134, 1994.22, 1990.49, 1993.78, 1992.41, 1990.80, 1990.31, 1991.67, 1992.99, 0.00
135, 1814.22, 1810.51, 1813.96, 1812.70, 1811.21, 1810.47, 1811.92, 1813.08, 0.00
136, 1752.58, 1748.58, 1752.26, 1750.97, 1749.49, 1748.71, 1750.12, 1751.42, 0.00
137, 1818.07, 1814.09, 1817.51, 1816.53, 1814.92, 1813.91, 1815.27, 1816.86, 0.00
138, 1876.88, 1873.30, 1876.83, 1875.53, 1874.22, 1873.23, 1874.71, 1876.00, 0.00
139, 1870.33, 1866.50, 1870.04, 1868.76, 1867.22, 1866.62, 1867.73, 1869.28, 0.00
140, 1839.44, 1835.66, 1839.24, 1837.89, 1836.44, 1835.61, 1837.20, 1838.34, 0.00
141, 1822.27, 1818.54, 1822.16, 1820.75, 1819.23, 1818.56, 1819.90, 1821.26, 0.00
142, 1811.56, 1807.94, 1811.30, 1810.18, 1808.52, 1807.81, 1809.11, 1810.40, 0.00
143, 1802.20, 1798.62, 1802.04, 1800.97, 1799.34, 1798.51, 1800.01, 1801.04, 0.00
144, 1809.46, 1805.82, 1809.26, 1807.99, 1806.60, 1805.51, 1806.96, 1808.35, 0.00
145, 1829.11, 1825.62, 1829.04, 1827.66, 1826.41, 1825.40, 1826.72, 1828.10, 0.00
146, 1828.98, 1825.38, 1828.53, 1827.43, 1825.98, 1825.29, 1826.52, 1827.70, 0.00
147, 1796.68, 1793.15, 1796.28, 1795.09, 1793.62, 1792.90, 1793.95, 1795.49, 0.00
148, 1767.17, 1763.60, 1766.88, 1765.47, 1764.47, 1763.57, 1764.60, 1766.32, 0.00
149, 1775.87, 1772.16, 1775.40, 1774.46, 1773.05, 1772.25, 1773.45, 1775.02, 0.00
150, 1806.13, 1802.40, 1805.75, 1804.55, 1802.98, 1802.20, 1803.41, 1805.15, 0.00
151, 1810.58, 1806.98, 1810.31, 1808.75, 1807.41, 1806.85, 1807.99, 1809.57, 0.00
152, 1777.54, 1773.92, 1777.43, 1775.82, 1774.48, 1773.90, 1775.18, 1776.78, 0.00
153, 1747.17, 1743.46, 1746.83, 1745.49, 1744.04, 1743.39, 1744.64, 1746.01, 0.00
154, 1753.43, 1749.85, 1752.91, 1751.66, 1750.34, 1749.56, 1750.92, 1752.11, 0.00
155, 1779.24, 1775.98, 1779.06, 1777.95, 1776.76, 1775.51, 1777.01, 1778.30, 0.00
156, 1783.67, 1780.18, 1783.45, 1782.26, 1781.08, 1780.00, 1781.52, 1782.60, 0.00
157, 1756.69, 1752.94, 1756.40, 1754.81, 1754.05, 1752.96, 1754.48, 1755.60, 0.00
158, 1730.85, 1727.05, 1730.61, 1729.09, 1728.17, 1726.94, 1728.35, 1729.60, 0.00
159, 1733.96, 1730.29, 1733.87, 1732.24, 1731.16, 1730.29, 1731.54, 1732.71, 0.00
160, 1753.02, 1749.36, 1752.47, 1751.17, 1750.01, 1749.47, 1750.48, 1751.71, 0.00
161, 1755.55, 1752.11, 1755.13, 1753.96, 1752.64, 1751.71, 1752.85, 1754.16, 0.00
162, 1734.67, 1731.39, 1734.61, 1733.31, 1732.08, 1731.08, 1732.24, 1733.33, 0.00
163, 1714.76, 1711.38, 1714.38, 1713.19, 1711.88, 1711.38, 1712.43, 1713.31, 0.00
164, 1715.36, 1711.88, 1715.00, 1713.57, 1712.32, 1711.76, 1712.81, 1713.95, 0.00
165, 1727.39, 1723.63, 1726.98, 1725.60, 1724.68, 1723.68, 1724.77, 1725.98, 0.00
166, 1728.01, 1724.50, 1727.90, 1726.49, 1725.33, 1724.46, 1725.78, 1726.87, 0.00
167, 1712.81, 1709.17, 1712.46, 1711.12, 1710.15, 1709.04, 1710.47, 1711.54, 0.00
168, 1697.46, 1694.08, 1697.17, 1696.03, 1694.82, 1693.59, 1695.09, 1696.36, 0.00
169, 1696.30, 1692.85, 1695.94, 1694.66, 1693.66, 1692.43, 1694.02, 1695.13, 0.00
170, 1702.82, 1699.47, 1702.62, 1701.24, 1700.10, 1699.16, 1700.57, 1701.75, 0.00
171, 1702.00, 1698.62, 1701.73, 1700.43, 1699.25, 1698.44, 1700.14, 1701.01, 0.00
172, 1690.82, 1687.11, 1690.15, 1689.12, 1687.69, 1687.04, 1688.34, 1689.46, 0.00
173, 1679.20, 1675.64, 1678.64, 1677.63, 1676.31, 1675.55, 1676.74, 1677.86, 0.00
174, 1676.72, 1673.07, 1676.25, 1675.26, 1674.03, 1673.25, 1674.68, 1675.51, 0.00
175, 1679.60, 1675.98, 1679.06, 1678.06, 1676.83, 1675.93, 1677.12, 1678.19, 0.00
176, 1677.63, 1674.15, 1677.48, 1676.09, 1674.82, 1673.99, 1675.20, 1676.29, 0.00
177, 1668.74, 1665.43, 1668.36, 1667.24, 1666.17, 1665.25, 1666.37, 1667.51, 0.00
178, 1659.77, 1656.42, 1659.59, 1658.28, 1657.36, 1656.26, 1657.69, 1658.66, 0.00
179, 1656.78, 1653.45, 1656.53, 1655.33, 1654.23, 1653.34, 1654.63, 1655.66, 0.00
180, 1657.07, 1653.89, 1656.76, 1655.75, 1654.48, 1653.51, 1654.79, 1655.82, 0.00
181, 1654.41, 1651.17, 1653.92, 1652.96, 1651.84, 1650.92, 1652.26, 1653.16, 0.00
182, 1647.23, 1643.97, 1646.92, 1646.00, 1644.66, 1643.86, 1645.02, 1646.09, 0.00
183, 1640.08, 1636.80, 1639.72, 1638.61, 1637.38, 1636.71, 1637.94, 1638.81, 0.00
184, 1636.28, 1633.24, 1636.26, 1635.14, 1633.93, 1632.91, 1634.36, 1634.99, 0.00
185, 1634.85, 1631.77, 1634.85, 1633.71, 1632.44, 1631.43, 1632.97, 1633.53, 0.00
186, 1631.72, 1628.28, 1631.57, 1630.36, 1629.42, 1628.12, 1629.75, 1630.29, 0.00
187, 1625.82, 1622.31, 1625.46, 1624.37, 1623.25, 1622.07, 1623.56, 1624.32, 0.00
188, 1124.94, 1121.57, 1124.29, 1123.47, 1122.62, 1121.25, 1122.71, 1123.53, 0.00
189, -802.18, -806.32, -803.86, -804.37, -803.88, -805.49, -804.04, -804.35, 0.00
190, -1213.86, -1218.33, -1215.85, -1216.38, -1215.35, -1216.99, -1215.87, -1216.18, 0.00
191, -1990.51, -1994.98, -1993.04, -1993.08, -1991.54, -1993.37, -1992.46, -1993.37, 0.00
192, -2662.16, -2666.65, -2664.66, -2664.60, -2662.79, -2664.69, -2663.63, -2665.13, 0.00
193, -2475.30, -2479.68, -2477.42, -2477.27, -2475.70, -2477.56, -2476.66, -2477.89, 0.00
194, -1919.75, -1924.17, -1921.69, -1921.71, -1920.33, -1922.18, -1921.56, -1922.43, 0.00
195, -1752.71, -1756.96, -1754.43, -1754.59, -1753.32, -1754.97, -1754.28, -1754.86, 0.00
196, -2025.36, -2029.29, -2027.10, -2027.26, -2025.87, -2027.39, -2026.74, -2027.50, 0.00
197, -2265.35, -2269.66, -2267.43, -2267.63, -2265.89, -2267.63, -2266.78, -2267.85, 0.00
198, -2209.87, -2213.87, -2211.82, -2212.20, -2210.32, -2211.97, -2211.28, -2212.26, 0.00
199, -2029.52, -2033.58, -2031.59, -2031.73, -2030.10, -2031.77, -2031.01, -2031.80, 0.00
200, -1967.09, -1971.40, -1969.30, -1969.26, -1968.07, -1969.50, -1968.45, -1969.64, 0.00
201, -2032.04, -2036.44, -2034.28, -2034.43, -2032.65, -2034.46, -2033.61, -2034.63, 0.00
202, -2090.76, -2095.19, -2093.08, -2093.08, -2091.47, -2093.11, -2092.17, -2093.06, 0.00
203, -2083.45, -2087.94, -2085.82, -2085.71, -2084.01, -2085.78, -2084.79, -2085.98, 0.00
204, -2052.31, -2056.58, -2054.64, -2054.44, -2052.76, -2054.64, -2053.75, -2054.84, 0.00
205, -2034.99, -2038.86, -2037.09, -2036.87, -2035.37, -2037.00, -2036.22, -2037.09, 0.00
206, -2023.70, -2027.73, -2025.72, -2025.36, -2023.88, -2025.74, -2025.07, -2025.94, 0.00
207, -2013.80, -2017.94, -2015.66, -2015.66, -2014.32, -2016.15, -2015.28, -2015.99, 0.00
208, -2020.46, -2024.53, -2022.50, -2022.72, -2021.16, -2022.85, -2022.09, -2022.90, 0.00
209, -2039.37, -2043.84, -2042.06, -2042.01, -2040.24, -2042.14, -2041.25, -2042.14, 0.00
210, -2039.15, -2043.35, -2041.41, -2041.45, -2039.80, -2041.59, -2040.76, -2041.56, 0.00
211, -2006.27, -2010.47, -2008.37, -2008.57, -2006.87, -2008.93, -2007.79, -2008.86, 0.00
212, -1976.54, -1980.52, -1978.84, -1978.69, -1977.19, -1978.91, -1977.91, -1978.98, 0.00
213, -1984.90, -1988.93, -1987.18, -1986.98, -1985.44, -1987.18, -1986.20, -1987.05, 0.00
214, -2014.54, -2018.54, -2016.71, -2016.60, -2015.10, -2016.86, -2016.08, -2016.82, 0.00
215, -2018.54, -2022.56, -2020.49, -2020.62, -2019.10, -2020.64, -2019.86, -2020.84, 0.00
216, -1985.21, -1989.31, -1987.32, -1987.25, -1985.82, -1987.58, -1986.82, -1987.29, 0.00
217, -1954.10, -1958.28, -1956.18, -1956.22, -1954.77, -1956.52, -1955.71, -1956.43, 0.00
218, -1959.80, -1964.03, -1961.68, -1961.92, -1960.31, -1962.01, -1961.32, -1962.30, 0.00
219, -1985.82, -1989.86, -1987.49, -1987.83, -1986.24, -1988.08, -1987.05, -1988.30, 0.00
220, -1989.64, -1993.51, -1991.52, -1991.70, -1990.20, -1991.83, -1990.89, -1991.88, 0.00
221, -1961.99, -1966.13, -1964.14, -1964.29, -1962.68, -1964.20, -1963.35, -1964.56, 0.00
222, -1935.95, -1940.09, -1937.87, -1937.85, -1936.51, -1937.78, -1937.14, -1938.30, 0.00
223, -1938.63, -1942.46, -1940.38, -1940.38, -1939.08, -1940.58, -1939.73, -1940.89, 0.00
224, -1956.87, -1960.96, -1958.86, -1959.02, -1957.57, -1959.17, -1958.19, -1959.38, 0.00
225, -1958.88, -1963.20, -1961.07, -1961.07, -1959.58, -1961.25, -1960.36, -1961.52, 0.00
226, -1938.05, -1941.90, -1939.91, -1940.40, -1938.43, -1940.15, -1939.33, -1940.31, 0.00
227, -1917.49, -1921.42, -1919.37, -1919.61, -1917.96, -1919.90, -1918.83, -1919.90, 0.00
228, -1917.76, -1921.67, -1919.34, -1919.66, -1918.18, -1919.75, -1919.14, -1919.88, 0.00
229, -1929.34, -1933.36, -1931.24, -1931.12, -1929.80, -1931.30, -1930.39, -1931.44, 0.00
230, -1929.76, -1933.74, -1931.70, -1931.39, -1930.10, -1931.70, -1930.92, -1931.79, 0.00
231, -1913.76, -1917.80, -1915.77, -1915.50, -1914.00, -1915.77, -1914.92, -1916.04, 0.00
232, -1898.20, -1902.11, -1900.14, -1900.12, -1898.62, -1900.35, -1899.47, -1900.46, 0.00
233, -1896.68, -1900.52, -1898.74, -1898.85, -1896.84, -1898.85, -1897.84, -1898.67, 0.00
234, -1902.71, -1906.69, -1904.90, -1905.04, -1902.96, -1904.86, -1904.01, -1905.15, 0.00
235, -1901.48, -1905.44, -1903.54, -1903.76, -1901.93, -1903.56, -1902.80, -1904.08, 0.00
236, -1889.84, -1893.77, -1891.78, -1892.07, -1889.88, -1891.92, -1890.69, -1892.03, 0.00
237, -1877.86, -1881.82, -1880.01, -1879.94, -1878.11, -1879.87, -1878.82, -1880.32, 0.00
238, -1874.95, -1879.04, -1877.03, -1877.01, -1875.38, -1876.97, -1876.07, -1877.37, 0.00
239, -1877.37, -1881.28, -1879.29, -1879.38, -1877.77, -1879.38, -1878.51, -1879.58, 0.00
240, -1874.98, -1878.93, -1876.72, -1876.85, -1875.33, -1877.05, -1876.07, -1877.21, 0.00
241, -1865.72, -1869.61, -1867.64, -1867.47, -1865.95, -1867.69, -1866.97, -1868.11, 0.00
242, -1856.33, -1860.36, -1858.53, -1858.17, -1856.83, -1858.19, -1857.74, -1858.82, 0.00
243, -1852.83, -1856.76, -1854.86, -1854.81, -1853.12, -1854.81, -1853.99, -1855.33, 0.00
244, -1852.83, -1856.71, -1854.73, -1854.61, -1852.76, -1854.77, -1853.97, -1855.08, 0.00
245, -1849.74, -1853.54, -1851.57, -1851.48, -1849.74, -1851.75, -1850.75, -1852.00, 0.00
246, -1842.14, -1845.76, -1843.80, -1844.04, -1842.19, -1844.15, -1843.24, -1844.29, 0.00
247, -1834.59, -1838.16, -1836.26, -1836.40, -1834.70, -1836.71, -1835.61, -1836.87, 0.00
248, -1830.54, -1834.34, -1832.44, -1832.37, -1830.72, -1832.75, -1831.59, -1832.89, 0.00
249, -1828.71, -1832.53, -1830.54, -1830.47, -1828.91, -1830.65, -1829.74, -1830.99, 0.00
250, -1825.22, -1829.02, -1827.01, -1826.92, -1825.49, -1827.12, -1826.00, -1827.21, 0.00
251, -1818.76, -1822.81, -1820.64, -1820.64, -1819.05, -1820.82, -1819.79, -1821.13, 0.00
252, -1317.39, -1321.48, -1318.93, -1319.36, -1317.70, -1319.49, -1318.66, -1319.56, 0.00
253, 610.40, 606.94, 609.69, 608.88, 609.22, 607.65, 609.00, 609.02, 0.00
254, 1022.55, 1019.28, 1021.99, 1020.92, 1021.01, 1019.64, 1020.63, 1020.83, 0.00
255, 1799.61, 1796.74, 1799.76, 1798.22, 1797.95, 1796.79, 1797.80, 1798.56, 0.00
256, 2471.59, 2468.86, 2471.79, 2470.34, 2469.29, 2468.44, 2469.53, 2470.65, 0.00
257, 2284.82, 2282.14, 2285.11, 2283.70, 2282.78, 2281.60, 2282.81, 2283.86, 0.00
258, 1729.78, 1726.90, 1729.78, 1728.55, 1727.97, 1726.63, 1728.04, 1728.75, 0.00
259, 1563.26, 1559.97, 1563.12, 1562.01, 1561.45, 1559.91, 1561.38, 1561.92, 0.00
260, 1836.20, 1833.13, 1836.06, 1834.88, 1834.34, 1832.64, 1834.09, 1835.06, 0.00
261, 2076.77, 2073.68, 2076.57, 2075.72, 2074.35, 2073.17, 2074.71, 2075.60, 0.00
262, 2021.40, 2018.47, 2021.58, 2020.28, 2019.10, 2018.23, 2019.55, 2020.24, 0.00
263, 1841.52, 1838.61, 1841.52, 1840.35, 1839.44, 1838.23, 1839.73, 1840.38, 0.00
264, 1779.69, 1776.72, 1779.67, 1778.46, 1777.46, 1776.43, 1777.92, 1778.48, 0.00
265, 1844.91, 1841.94, 1844.98, 1843.73, 1842.77, 1841.94, 1843.24, 1843.71, 0.00
266, 1904.30, 1901.26, 1904.37, 1902.98, 1902.22, 1900.79, 1902.51, 1903.03, 0.00
267, 1897.17, 1894.20, 1897.46, 1896.03, 1895.36, 1893.91, 1895.56, 1896.19, 0.00
268, 1866.66, 1863.60, 1866.77, 1865.21, 1864.67, 1863.31, 1864.67, 1865.34, 0.00
269, 1849.23, 1846.41, 1849.38, 1847.86, 1847.37, 1846.10, 1847.37, 1847.95, 0.00
270, 1838.12, 1835.32, 1838.32, 1836.98, 1836.49, 1835.19, 1836.55, 1837.13, 0.00
271, 1828.75, 1825.91, 1828.98, 1827.77, 1827.17, 1825.65, 1827.28, 1827.99, 0.00
272, 1836.17, 1833.33, 1836.20, 1835.01, 1834.52, 1833.02, 1834.56, 1835.06, 0.00
273, 1855.78, 1853.03, 1855.82, 1854.68, 1854.05, 1852.67, 1854.21, 1854.97, 0.00
274, 1855.55, 1852.69, 1855.75, 1854.64, 1853.97, 1852.31, 1853.81, 1854.55, 0.00
275, 1823.52, 1820.33, 1823.52, 1822.45, 1821.58, 1820.17, 1821.51, 1822.20, 0.00
276, 1794.20, 1791.07, 1794.20, 1792.72, 1792.05, 1790.82, 1792.05, 1792.63, 0.00
277, 1802.65, 1799.56, 1802.42, 1801.39, 1800.75, 1799.43, 1800.63, 1801.26, 0.00
278, 1832.57, 1829.45, 1832.73, 1831.48, 1830.61, 1829.56, 1830.70, 1831.50, 0.00
279, 1837.09, 1833.96, 1837.04, 1835.91, 1835.06, 1833.87, 1835.28, 1835.93, 0.00
280, 1804.03, 1801.19, 1804.19, 1802.82, 1802.36, 1800.72, 1802.31, 1802.91, 0.00
281, 1773.39, 1770.44, 1773.61, 1772.20, 1771.91, 1770.12, 1771.67, 1772.34, 0.00
282, 1779.62, 1776.61, 1779.56, 1778.44, 1777.79, 1776.38, 1777.75, 1778.51, 0.00
283, 1805.71, 1802.78, 1805.84, 1804.86, 1803.85, 1802.40, 1803.94, 1804.48, 0.00
284, 1809.82, 1807.03, 1809.87, 1808.73, 1808.08, 1806.60, 1808.23, 1808.73, 0.00
285, 1782.62, 1779.78, 1782.57, 1781.79, 1781.05, 1779.65, 1781.03, 1781.75, 0.00
286, 1756.76, 1753.94, 1756.96, 1755.93, 1755.24, 1753.61, 1755.30, 1755.84, 0.00
287, 1759.80, 1757.00, 1759.80, 1758.97, 1758.37, 1756.44, 1758.03, 1758.93, 0.00
288, 1778.75, 1776.05, 1778.64, 1777.72, 1777.12, 1775.51, 1776.87, 1777.63, 0.00
289, 1781.34, 1778.51, 1781.32, 1780.23, 1779.71, 1778.24, 1779.67, 1780.18, 0.00
290, 1760.74, 1757.88, 1760.60, 1759.62, 1758.99, 1757.56, 1758.66, 1759.26, 0.00
291, 1740.78, 1737.78, 1740.28, 1739.35, 1739.08, 1737.54, 1738.81, 1739.19, 0.00
292, 1741.33, 1738.18, 1741.07, 1739.84, 1739.70, 1738.27, 1739.57, 1739.77, 0.00
293, 1753.05, 1750.07, 1753.07, 1751.95, 1751.53, 1750.19, 1751.28, 1751.91, 0.00
294, 1753.74, 1750.86, 1753.78, 1752.64, 1752.35, 1750.81, 1751.97, 1752.87, 0.00
295, 1738.50, 1735.37, 1738.27, 1736.98, 1736.80, 1735.30, 1736.60, 1737.36, 0.00
296, 1723.21, 1720.23, 1723.19, 1721.89, 1721.31, 1720.19, 1721.37, 1722.11, 0.00
297, 1721.91, 1718.92, 1722.02, 1720.68, 1720.15, 1718.80, 1720.01, 1720.79, 0.00
298, 1728.64, 1725.62, 1728.64, 1727.21, 1726.67, 1725.24, 1726.90, 1727.36, 0.00
299, 1727.83, 1724.88, 1727.83, 1726.67, 1726.02, 1724.53, 1726.07, 1726.72, 0.00
300, 1716.17, 1713.33, 1716.03, 1715.03, 1714.42, 1713.28, 1714.54, 1715.00, 0.00
301, 1704.50, 1701.79, 1704.88, 1703.81, 1702.71, 1701.75, 1702.91, 1703.58, 0.00
302, 1701.79, 1699.27, 1702.22, 1701.08, 1700.41, 1699.36, 1700.39, 1700.92, 0.00
303, 1704.79, 1701.93, 1704.86, 1703.63, 1703.38, 1702.13, 1703.20, 1703.56, 0.00
304, 1703.00, 1699.89, 1703.00, 1701.79, 1701.41, 1700.01, 1701.37, 1701.79, 0.00
305, 1694.02, 1690.98, 1694.08, 1692.99, 1692.52, 1691.09, 1692.38, 1692.72, 0.00
306, 1685.10, 1682.06, 1684.92, 1683.78, 1683.53, 1682.01, 1683.44, 1683.78, 0.00
307, 1682.10, 1679.06, 1681.79, 1680.94, 1680.58, 1678.91, 1680.45, 1680.78, 0.00
308, 1682.30, 1679.24, 1681.97, 1680.99, 1680.81, 1678.95, 1680.40, 1680.90, 0.00
309, 1679.42, 1676.45, 1679.38, 1678.35, 1677.99, 1676.47, 1677.79, 1678.01, 0.00
310, 1672.22, 1669.05, 1672.25, 1671.15, 1670.95, 1669.14, 1670.77, 1670.95, 0.00
311, 1664.89, 1661.83, 1665.12, 1663.98, 1663.68, 1661.92, 1663.35, 1663.86, 0.00
312, 1661.38, 1658.12, 1661.36, 1660.38, 1660.20, 1658.16, 1659.84, 1660.29, 0.00
313, 1659.84, 1656.76, 1659.93, 1659.15, 1658.66, 1657.00, 1658.28, 1658.90, 0.00
314, 1656.47, 1653.54, 1656.49, 1655.73, 1655.39, 1653.74, 1654.86, 1655.55, 0.00
315, 1650.83, 1647.77, 1650.36, 1649.58, 1649.65, 1647.73, 1649.07, 1649.85, 0.00
316, 1149.84, 1146.58, 1149.33, 1148.63, 1148.48, 1146.71, 1148.05, 1148.45, 0.00
317, -777.55, -781.15, -779.16, -779.20, -778.00, -780.08, -779.07, -779.45, 0.00
318, -1189.20, -1193.20, -1191.01, -1191.10, -1189.67, -1191.62, -1190.54, -1191.37, 0.00
319, -1966.06, -1970.08, -1968.09, -1968.18, -1966.19, -1968.25, -1967.22, -1968.52, 0.00
320, -2637.82, -2641.93, -2640.17, -2639.79, -2637.44, -2639.49, -2638.78, -2640.46, 0.00
321, -2450.73, -2454.87, -2452.86, -2452.43, -2450.22, -2452.19, -2451.70, -2453.22, 0.00
322, -1895.47, -1899.25, -1897.28, -1897.31, -1895.09, -1896.99, -1896.37, -1897.64, 0.00
323, -1728.24, -1732.24, -1730.16, -1730.11, -1728.12, -1730.14, -1729.26, -1730.65, 0.00
324, -2000.61, -2004.55, -2002.65, -2002.69, -2000.53, -2002.58, -2001.73, -2003.14, 0.00
325, -2240.65, -2244.87, -2243.09, -2242.86, -2240.29, -2242.82, -2241.99, -2243.33, 0.00
326, -2185.04, -2189.17, -2187.43, -2187.25, -2184.79, -2187.07, -2186.18, -2187.88, 0.00
327, -2004.97, -2009.09, -2007.07, -2006.85, -2004.73, -2006.83, -2005.96, -2007.54, 0.00
328, -1942.95, -1946.99, -1945.00, -1944.62, -1942.46, -1944.69, -1943.98, -1945.43, 0.00
329, -2008.04, -2011.75, -2009.91, -2009.35, -2007.59, -2009.60, -2008.89, -2010.29, 0.00
330, -2066.78, -2070.53, -2068.63, -2068.21, -2066.53, -2068.23, -2067.83, -2069.03, 0.00
331, -2059.42, -2063.24, -2061.28, -2060.96, -2059.04, -2060.94, -2060.38, -2061.72, 0.00
332, -2028.22, -2031.93, -2030.16, -2029.90, -2027.71, -2029.94, -2028.96, -2030.48, 0.00
333, -2010.70, -2014.50, -2012.73, -2012.57, -2010.36, -2012.37, -2011.59, -2012.91, 0.00
334, -1999.36, -2003.50, -2001.31, -2001.06, -1999.03, -2001.15, -2000.50, -2001.87, 0.00
335, -1989.80, -1993.60, -1991.56, -1991.43, -1989.31, -1991.76, -1990.65, -1992.08, 0.00
336, -1996.41, -2000.75, -1998.45, -1998.45, -1996.14, -1998.56, -1997.46, -1999.03, 0.00
337, -2015.81, -2019.82, -2017.74, -2017.69, -2015.50, -2017.69, -2016.84, -2018.45, 0.00
338, -2014.92, -2019.21, -2016.82, -2016.89, -2014.72, -2017.09, -2016.10, -2017.51, 0.00
339, -1982.47, -1986.62, -1984.61, -1984.54, -1982.06, -1984.54, -1983.36, -1985.04, 0.00
340, -1952.69, -1956.85, -1954.68, -1954.79, -1952.49, -1954.82, -1953.65, -1955.31, 0.00
341, -1961.01, -1965.14, -1963.11, -1962.91, -1960.85, -1962.91, -1962.17, -1963.56, 0.00
342, -1990.56, -1994.60, -1992.64, -1992.61, -1990.51, -1992.59, -1991.92, -1993.24, 0.00
343, -1994.51, -1998.76, -1996.64, -1996.68, -1994.38, -1996.57, -1995.99, -1997.11, 0.00
344, -1961.48, -1965.55, -1963.51, -1963.40, -1961.19, -1963.22, -1962.53, -1963.65, 0.00
345, -1930.61, -1934.36, -1932.33, -1932.26, -1930.14, -1932.29, -1931.55, -1932.76, 0.00
346, -1936.15, -1940.42, -1938.25, -1938.19, -1936.06, -1937.99, -1937.47, -1938.34, 0.00
347, -1962.37, -1966.35, -1964.03, -1964.14, -1961.90, -1963.78, -1963.13, -1964.34, 0.00
348, -1966.17, -1970.02, -1967.87, -1967.74, -1965.84, -1967.74, -1966.82, -1968.56, 0.00
349, -1938.45, -1942.12, -1940.31, -1940.31, -1938.25, -1940.22, -1939.64, -1940.91, 0.00
350, -1912.24, -1916.10, -1914.09, -1914.02, -1912.06, -1914.07, -1913.15, -1914.69, 0.00
351, -1915.07, -1918.85, -1916.93, -1916.59, -1914.61, -1916.71, -1916.10, -1917.33, 0.00
352, -1933.63, -1937.25, -1935.55, -1935.10, -1933.14, -1935.39, -1934.74, -1935.86, 0.00
353, -1935.66, -1939.51, -1937.85, -1937.45, -1935.41, -1937.69, -1936.98, -1938.21, 0.00
354, -1914.72, -1918.74, -1916.62, -1916.46, -1914.18, -1916.46, -1915.86, -1916.91, 0.00
355, -1894.22, -1898.27, -1896.17, -1896.21, -1893.84, -1896.10, -1895.25, -1896.59, 0.00
356, -1894.58, -1898.45, -1896.39, -1896.32, -1894.00, -1896.34, -1895.49, -1896.79, 0.00
357, -1906.04, -1909.93, -1908.03, -1907.94, -1905.51, -1908.03, -1906.96, -1908.37, 0.00
358, -1906.47, -1910.52, -1908.48, -1908.06, -1905.89, -1908.30, -1907.56, -1908.79, 0.00
359, -1890.85, -1894.67, -1892.79, -1892.52, -1890.11, -1892.37, -1891.72, -1893.01, 0.00
360, -1875.09, -1879.07, -1877.23, -1876.90, -1874.57, -1876.90, -1876.05, -1877.52, 0.00
361, -1873.34, -1877.46, -1875.58, -1875.33, -1872.94, -1875.42, -1874.39, -1875.91, 0.00
362, -1879.51, -1883.78, -1881.86, -1881.82, -1879.49, -1881.44, -1880.56, -1881.93, 0.00
363, -1878.64, -1882.66, -1880.18, -1880.43, -1878.55, -1880.52, -1879.54, -1880.85, 0.00
364, -1866.73, -1870.80, -1868.47, -1868.43, -1866.44, -1868.70, -1867.80, -1869.19, 0.00
365, -1854.68, -1858.64, -1856.78, -1856.63, -1854.64, -1856.74, -1855.89, -1857.07, 0.00
366, -1852.11, -1855.93, -1853.90, -1853.63, -1851.95, -1854.23, -1853.05, -1854.43, 0.00
367, -1854.66, -1858.30, -1856.40, -1856.18, -1854.17, -1856.51, -1855.51, -1857.03, 0.00
368, -1852.27, -1856.02, -1854.23, -1853.97, -1851.95, -1854.30, -1853.32, -1854.79, 0.00
369, -1843.04, -1846.88, -1844.91, -1844.67, -1842.83, -1845.11, -1843.86, -1845.58, 0.00
370, -1833.94, -1837.83, -1835.53, -1835.28, -1833.58, -1835.84, -1834.74, -1836.31, 0.00
371, -1830.32, -1834.01, -1831.84, -1831.95, -1830.05, -1832.22, -1831.30, -1832.89, 0.00
372, -1830.14, -1833.87, -1831.88, -1831.64, -1829.56, -1832.28, -1830.97, -1832.40, 0.00
373, -1826.74, -1831.14, -1828.69, -1828.48, -1826.67, -1829.09, -1827.79, -1829.47, 0.00
374, -1819.39, -1823.46, -1821.51, -1821.38, -1819.14, -1821.60, -1820.21, -1821.73, 0.00
375, -1811.90, -1816.08, -1813.91, -1813.58, -1811.45, -1813.84, -1812.66, -1814.18, 0.00
376, -1808.19, -1812.26, -1809.95, -1809.71, -1807.45, -1810.02, -1808.93, -1810.45, 0.00
377, -1806.20, -1810.31, -1807.92, -1808.03, -1805.82, -1808.12, -1807.27, -1808.55, 0.00
378, -1802.87, -1806.85, -1804.57, -1804.39, -1802.20, -1804.75, -1803.70, -1805.15, 0.00
379, -1796.32, -1800.16, -1797.88, -1798.09, -1795.67, -1798.40, -1797.19, -1798.62, 0.00
380, -1295.04, -1299.02, -1296.62, -1296.83, -1294.79, -1297.03, -1296.04, -1297.25, 0.00
381, 632.62, 629.34, 632.06, 631.32, 631.86, 629.87, 631.41, 631.01, 0.00
382, 1044.61, 1041.46, 1044.27, 1043.69, 1043.78, 1041.77, 1043.45, 1043.36, 0.00
383, 1821.73, 1818.90, 1821.96, 1820.82, 1820.66, 1818.94, 1820.53, 1820.86, 0.00
384, 2493.76, 2491.01, 2494.21, 2492.93, 2492.24, 2490.43, 2491.88, 2492.98, 0.00
385, 2306.81, 2303.91, 2307.59, 2306.21, 2305.52, 2303.48, 2305.14, 2305.98, 0.00
386, 1751.71, 1748.80, 1752.22, 1750.99, 1750.79, 1748.73, 1750.41, 1750.81, 0.00
387, 1585.03, 1581.77, 1585.21, 1584.20, 1584.20, 1582.19, 1583.67, 1583.98, 0.00
388, 1857.85, 1854.61, 1858.03, 1857.12, 1856.83, 1854.86, 1856.51, 1856.92, 0.00
389, 2098.40, 2095.50, 2098.85, 2097.82, 2097.22, 2095.32, 2097.15, 2097.49, 0.00
390, 2043.02, 2040.38, 2043.35, 2042.61, 2042.08, 2040.27, 2041.88, 2042.19, 0.00
391, 1863.55, 1860.27, 1863.29, 1862.44, 1862.30, 1860.29, 1861.92, 1862.26, 0.00
392, 1801.64, 1798.31, 1801.57, 1800.48, 1800.28, 1798.60, 1799.90, 1800.16, 0.00
393, 1866.75, 1863.73, 1866.71, 1865.68, 1865.63, 1863.82, 1865.14, 1865.52, 0.00
394, 1926.03, 1922.88, 1926.05, 1924.93, 1924.55, 1923.01, 1924.31, 1924.75, 0.00
395, 1919.03, 1915.77, 1919.01, 1918.03, 1917.53, 1915.95, 1917.22, 1917.89, 0.00
396, 1888.23, 1885.10, 1888.54, 1887.25, 1886.80, 1885.19, 1886.62, 1887.09, 0.00
397, 1871.06, 1867.91, 1871.11, 1870.15, 1869.54, 1867.78, 1869.41, 1869.90, 0.00
398, 1859.91, 1856.96, 1860.04, 1858.99, 1858.57, 1856.96, 1858.28, 1858.99, 0.00
399, 1850.68, 1847.33, 1850.61, 1849.61, 1849.41, 1847.68, 1849.05, 1849.63, 0.00
400, 1858.08, 1854.59, 1857.74, 1856.76, 1856.67, 1854.59, 1856.27, 1856.76, 0.00
401, 1877.39, 1874.19, 1877.35, 1876.32, 1876.16, 1874.33, 1875.62, 1876.47, 0.00
402, 1877.01, 1874.04, 1876.97, 1876.21, 1875.83, 1873.97, 1875.56, 1876.21, 0.00
403, 1844.76, 1841.58, 1844.91, 1843.93, 1843.46, 1841.65, 1843.48, 1843.82, 0.00
404, 1815.03, 1812.17, 1815.30, 1814.07, 1813.80, 1811.97, 1814.00, 1814.16, 0.00
405, 1823.54, 1820.93, 1823.90, 1822.96, 1822.36, 1820.55, 1822.32, 1822.56, 0.00
406, 1853.65, 1850.72, 1853.74, 1852.67, 1852.47, 1850.75, 1852.38, 1852.62, 0.00
407, 1858.19, 1855.17, 1858.21, 1856.89, 1857.03, 1854.97, 1856.69, 1857.18, 0.00
408, 1825.35, 1822.40, 1825.42, 1824.30, 1824.35, 1822.16, 1823.48, 1824.15, 0.00
409, 1794.35, 1791.40, 1794.67, 1793.57, 1793.37, 1791.56, 1792.81, 1793.46, 0.00
410, 1800.52, 1797.46, 1800.66, 1799.72, 1799.54, 1797.73, 1798.96, 1799.72, 0.00
411, 1826.67, 1823.63, 1827.14, 1826.05, 1825.42, 1823.70, 1825.35, 1825.56, 0.00
412, 1830.83, 1827.95, 1831.14, 1830.36, 1829.76, 1828.08, 1829.76, 1829.80, 0.00
413, 1803.74, 1800.50, 1803.81, 1802.89, 1802.44, 1800.77, 1802.20, 1802.42, 0.00
414, 1778.01, 1774.53, 1777.90, 1776.96, 1776.76, 1774.77, 1776.45, 1776.58, 0.00
415, 1781.08, 1777.86, 1780.96, 1779.96, 1779.94, 1778.01, 1779.49, 1779.85, 0.00
416, 1800.08, 1796.70, 1799.99, 1798.85, 1798.67, 1796.63, 1798.22, 1798.51, 0.00
417, 1802.44, 1799.05, 1802.58, 1801.37, 1801.17, 1799.14, 1800.75, 1801.06, 0.00
418, 1781.61, 1778.22, 1781.61, 1780.83, 1780.41, 1778.48, 1780.05, 1780.29, 0.00
419, 1761.43, 1758.17, 1761.54, 1760.58, 1760.22, 1758.37, 1759.95, 1760.02, 0.00
420, 1761.92, 1758.55, 1761.97, 1761.00, 1760.83, 1758.90, 1760.49, 1760.40, 0.00
421, 1773.97, 1770.44, 1773.83, 1773.12, 1772.90, 1771.00, 1772.25, 1772.60, 0.00
422, 1774.68, 1771.49, 1774.59, 1773.74, 1773.57, 1771.76, 1773.14, 1773.39, 0.00
423, 1759.04, 1756.02, 1759.15, 1758.30, 1758.12, 1756.06, 1757.61, 1757.74, 0.00
424, 1744.02, 1740.73, 1744.04, 1742.99, 1742.56, 1740.73, 1742.41, 1742.77, 0.00
425, 1742.61, 1739.41, 1742.65, 1741.71, 1741.54, 1739.66, 1741.09, 1741.31, 0.00
426, 1748.91, 1745.87, 1749.09, 1748.11, 1748.02, 1745.94, 1747.35, 1747.71, 0.00
427, 1748.04, 1744.96, 1748.35, 1747.46, 1747.15, 1745.11, 1746.70, 1747.03, 0.00
428, 1736.57, 1733.47, 1736.82, 1735.72, 1735.77, 1733.58, 1735.10, 1735.12, 0.00
429, 1725.13, 1721.98, 1725.24, 1724.19, 1724.12, 1722.00, 1723.50, 1723.61, 0.00
430, 1722.67, 1719.47, 1722.85, 1722.02, 1721.96, 1719.65, 1721.35, 1721.53, 0.00
431, 1725.44, 1721.98, 1725.49, 1724.30, 1724.37, 1722.36, 1723.81, 1723.99, 0.00
432, 1723.54, 1720.06, 1723.36, 1722.20, 1722.25, 1720.41, 1721.91, 1722.09, 0.00
433, 1714.54, 1711.20, 1714.31, 1713.48, 1713.44, 1711.56, 1712.90, 1713.31, 0.00
434, 1705.62, 1702.15, 1705.62, 1704.41, 1704.14, 1702.42, 1704.01, 1704.19, 0.00
435, 1702.42, 1699.11, 1702.35, 1701.39, 1701.03, 1699.31, 1700.97, 1700.92, 0.00
436, 1702.44, 1699.20, 1702.55, 1701.64, 1701.24, 1699.25, 1701.15, 1701.19, 0.00
437, 1699.72, 1696.39, 1699.81, 1698.98, 1698.51, 1696.50, 1698.24, 1698.11, 0.00
438, 1692.50, 1689.08, 1692.63, 1691.67, 1691.49, 1689.30, 1690.89, 1690.82, 0.00
439, 1685.21, 1681.83, 1685.43, 1684.38, 1684.34, 1682.08, 1683.51, 1683.78, 0.00
440, 1681.63, 1678.26, 1681.50, 1680.56, 1680.43, 1678.39, 1679.85, 1680.20, 0.00
441, 1680.27, 1676.69, 1680.11, 1678.79, 1678.95, 1676.72, 1678.44, 1678.55, 0.00
442, 1676.87, 1673.39, 1676.83, 1675.49, 1675.71, 1673.70, 1675.26, 1675.49, 0.00
443, 1670.84, 1667.35, 1670.73, 1669.72, 1669.65, 1667.48, 1669.41, 1669.59, 0.00
444, 1169.91, 1166.25, 1169.64, 1168.82, 1169.06, 1166.63, 1168.39, 1168.46, 0.00
445, -757.66, -761.64, -758.80, -759.13, -757.57, -760.03, -758.95, -759.80, 0.00
446, -1169.53, -1173.60, -1170.99, -1170.74, -1169.17, -1171.68, -1170.61, -1171.79, 0.00
447, -1946.19, -1950.57, -1947.95, -1947.84, -1945.50, -1948.11, -1947.26, -1948.58, 0.00
448, -2617.86, -2622.22, -2620.05, -2619.78, -2616.87, -2619.45, -2618.66, -2620.56, 0.00
449, -2430.77, -2435.13, -2433.03, -2432.54, -2429.86, -2432.36, -2431.47, -2433.26, 0.00
450, -1875.56, -1879.63, -1877.28, -1877.10, -1874.69, -1877.30, -1876.12, -1877.86, 0.00
451, -1708.39, -1712.32, -1710.29, -1709.98, -1707.90, -1710.49, -1709.04, -1711.03, 0.00
452, -1980.88, -1985.19, -1982.89, -1982.49, -1980.16, -1982.91, -1981.73, -1983.43, 0.00
453, -2221.34, -2225.45, -2223.46, -2223.06, -2220.62, -2223.04, -2222.21, -2223.89, 0.00
454, -2165.77, -2169.86, -2167.87, -2167.49, -2165.06, -2167.56, -2166.78, -2168.52, 0.00
455, -1985.48, -1989.75, -1987.38, -1987.38, -1985.04, -1987.27, -1986.65, -1988.08, 0.00
456, -1923.12, -1927.39, -1925.20, -1925.04, -1922.65, -1925.11, -1924.35, -1925.65, 0.00
457, -1988.14, -1992.41, -1990.29, -1989.98, -1987.47, -1990.31, -1989.46, -1990.74, 0.00
458, -2047.15, -2051.22, -2049.19, -2048.94, -2046.30, -2049.23, -2048.20, -2049.68, 0.00
459, -2040.04, -2044.16, -2041.99, -2041.54, -2038.95, -2041.92, -2040.83, -2042.28, 0.00
460, -2008.91, -2013.20, -2010.81, -2010.23, -2007.83, -2010.79, -2009.49, -2011.23, 0.00
461, -1991.72, -1995.59, -1993.17, -1992.90, -1990.51, -1993.44, -1992.21, -1993.82, 0.00
462, -1980.50, -1984.32, -1981.77, -1981.59, -1979.29, -1982.06, -1981.08, -1982.58, 0.00
463, -1970.55, -1974.58, -1972.18, -1971.76, -1969.88, -1972.36, -1971.13, -1972.88, 0.00
464, -1977.21, -1981.48, -1979.05, -1978.80, -1976.68, -1979.38, -1978.24, -1979.85, 0.00
465, -1996.70, -2000.86, -1998.72, -1998.20, -1996.03, -1998.74, -1997.55, -1999.07, 0.00
466, -1996.12, -2000.23, -1998.11, -1997.49, -1995.47, -1997.87, -1997.08, -1998.47, 0.00
467, -1963.71, -1967.76, -1965.50, -1964.92, -1963.00, -1965.41, -1964.32, -1965.84, 0.00
468, -1933.74, -1937.90, -1935.41, -1935.08, -1933.11, -1935.55, -1934.52, -1936.22, 0.00
469, -1942.21, -1946.19, -1943.57, -1943.55, -1941.34, -1943.75, -1942.55, -1944.53, 0.00
470, -1971.98, -1975.74, -1973.50, -1973.55, -1971.07, -1973.61, -1972.70, -1974.28, 0.00
471, -1975.67, -1979.98, -1977.62, -1977.44, -1974.91, -1977.70, -1976.72, -1978.33, 0.00
472, -1942.52, -1946.75, -1944.38, -1944.33, -1941.65, -1944.49, -1943.46, -1945.27, 0.00
473, -1911.54, -1915.81, -1913.42, -1913.42, -1910.83, -1913.58, -1912.53, -1914.14, 0.00
474, -1917.49, -1921.69, -1919.39, -1919.10, -1916.57, -1919.41, -1918.65, -1919.93, 0.00
475, -1943.37, -1947.60, -1945.03, -1944.94, -1942.43, -1945.32, -1944.22, -1945.79, 0.00
476, -1947.22, -1951.42, -1948.92, -1948.69, -1946.77, -1949.00, -1948.02, -1949.65, 0.00
477, -1919.86, -1923.97, -1921.47, -1921.29, -1919.14, -1921.69, -1920.57, -1921.94, 0.00
478, -1893.68, -1897.84, -1895.36, -1895.18, -1893.08, -1895.54, -1894.38, -1895.99, 0.00
479, -1896.46, -1900.57, -1898.13, -1897.93, -1895.74, -1898.20, -1897.31, -1898.74, 0.00
480, -1915.05, -1919.05, -1916.75, -1916.51, -1914.38, -1916.75, -1915.66, -1917.29, 0.00
481, -1917.38, -1921.40, -1918.99, -1918.83, -1916.73, -1919.19, -1918.20, -1919.61, 0.00
482, -1896.21, -1900.46, -1898.07, -1897.77, -1895.70, -1897.93, -1896.93, -1898.67, 0.00
483, -1875.60, -1879.63, -1877.68, -1877.32, -1875.11, -1877.57, -1876.47, -1878.26, 0.00
484, -1875.96, -1879.94, -1877.88, -1877.39, -1875.40, -1877.95, -1876.56, -1878.35, 0.00
485, -1887.60, -1891.63, -1889.48, -1889.12, -1886.93, -1889.42, -1888.12, -1890.11, 0.00
486, -1887.92, -1891.83, -1889.80, -1889.55, -1887.22, -1889.97, -1888.48, -1890.49, 0.00
487, -1872.16, -1876.29, -1873.97, -1873.77, -1871.38, -1874.39, -1872.83, -1874.64, 0.00
488, -1856.85, -1860.76, -1858.55, -1858.23, -1856.07, -1858.68, -1857.45, -1859.08, 0.00
489, -1855.11, -1859.17, -1856.74, -1856.56, -1854.28, -1857.14, -1855.75, -1857.34, 0.00
490, -1861.30, -1865.74, -1863.02, -1862.93, -1860.54, -1863.49, -1862.10, -1863.84, 0.00
491, -1860.34, -1864.31, -1861.94, -1861.97, -1859.73, -1862.35, -1861.16, -1862.88, 0.00
492, -1848.67, -1852.47, -1850.30, -1849.92, -1847.73, -1850.30, -1849.20, -1850.84, 0.00
493, -1836.78, -1841.00, -1838.36, -1838.25, -1836.24, -1838.63, -1837.27, -1839.17, 0.00
494, -1834.05, -1838.12, -1835.82, -1835.68, -1833.47, -1836.04, -1834.50, -1836.46, 0.00
495, -1836.24, -1840.38, -1838.12, -1837.98, -1835.77, -1838.30, -1837.18, -1838.70, 0.00
496, -1833.96, -1838.32, -1835.79, -1835.64, -1833.51, -1836.13, -1834.70, -1836.55, 0.00
497, -1824.73, -1829.11, -1826.61, -1826.56, -1824.35, -1826.99, -1825.62, -1827.52, 0.00
498, -1815.59, -1819.79, -1817.44, -1817.13, -1814.92, -1817.53, -1816.39, -1818.25, 0.00
499, -1812.08, -1816.46, -1814.02, -1813.75, -1811.47, -1814.27, -1813.08, -1814.54, 0.00
500, -1812.12, -1816.08, -1813.75, -1813.60, -1811.54, -1813.98, -1812.75, -1814.49, 0.00
501, -1809.17, -1813.17, -1810.60, -1810.65, -1808.32, -1810.94, -1809.51, -1811.43, 0.00
502, -1801.75, -1805.93, -1803.27, -1803.23, -1801.08, -1803.63, -1802.22, -1804.12, 0.00
503, -1794.08, -1798.13, -1795.72, -1795.87, -1793.57, -1796.16, -1794.80, -1796.66, 0.00
504, -1790.11, -1794.31, -1791.69, -1791.89, -1789.66, -1792.25, -1790.87, -1792.86, 0.00
505, -1788.43, -1792.74, -1790.31, -1789.97, -1787.96, -1790.49, -1789.28, -1791.05, 0.00
506, -1784.85, -1789.12, -1786.82, -1786.31, -1784.12, -1787.02, -1785.75, -1787.25, 0.00
507, -1778.51, -1782.77, -1780.41, -1780.05, -1778.04, -1780.70, -1779.51, -1780.94, 0.00
508, -1277.22, -1281.40, -1278.68, -1278.72, -1277.00, -1279.37, -1278.09, -1279.57, 0.00
509, 650.39, 647.04, 650.17, 649.70, 649.92, 647.87, 649.30, 648.69, 0.00
510, 1062.36, 1058.87, 1062.13, 1061.37, 1061.48, 1059.70, 1061.08, 1060.84, 0.00
511, 1839.64, 1836.26, 1839.59, 1838.48, 1838.43, 1836.64, 1838.05, 1838.07, 0.00
512, 2511.51, 2508.20, 2511.73, 2510.64, 2510.21, 2508.16, 2509.77, 2510.15, 0.00
513, 2324.45, 2321.09, 2324.94, 2323.71, 2323.35, 2321.27, 2323.17, 2323.46, 0.00
514, 1769.52, 1765.92, 1769.36, 1768.63, 1768.67, 1766.23, 1768.07, 1768.36, 0.00
515, 1602.69, 1599.40, 1602.71, 1601.93, 1601.88, 1599.74, 1601.48, 1601.28, 0.00
516, 1875.15, 1872.20, 1875.67, 1874.80, 1874.71, 1872.25, 1874.24, 1874.13, 0.00
517, 2115.68, 2112.89, 2116.53, 2115.53, 2115.08, 2112.87, 2114.56, 2114.85, 0.00
518, 2060.52, 2057.57, 2061.14, 2059.91, 2059.58, 2057.63, 2059.33, 2059.51, 0.00
519, 1880.65, 1877.59, 1880.92, 1880.16, 1879.65, 1877.48, 1879.38, 1879.40, 0.00
520, 1818.78, 1815.36, 1819.14, 1818.05, 1817.64, 1815.43, 1817.46, 1817.44, 0.00
521, 1884.23, 1880.72, 1884.39, 1883.13, 1882.78, 1880.92, 1882.89, 1882.78, 0.00
522, 1942.97, 1939.73, 1943.42, 1942.37, 1941.94, 1939.97, 1941.87, 1941.72, 0.00
523, 1935.88, 1932.69, 1936.33, 1935.19, 1935.12, 1933.02, 1934.79, 1934.70, 0.00
524, 1905.06, 1901.93, 1905.58, 1904.50, 1904.48, 1902.38, 1904.01, 1904.03, 0.00
525, 1887.87, 1884.88, 1888.12, 1887.16, 1887.22, 1885.17, 1886.89, 1886.87, 0.00
526, 1876.90, 1873.88, 1877.21, 1876.16, 1875.98, 1873.86, 1875.78, 1875.78, 0.00
527, 1867.80, 1864.45, 1868.00, 1867.04, 1866.73, 1864.52, 1866.33, 1866.82, 0.00
528, 1874.91, 1871.94, 1875.15, 1874.17, 1873.77, 1871.82, 1873.68, 1873.88, 0.00
529, 1894.35, 1891.20, 1894.60, 1893.73, 1893.10, 1891.07, 1892.99, 1893.13, 0.00
530, 1893.75, 1890.60, 1894.42, 1893.51, 1893.24, 1890.89, 1892.66, 1892.66, 0.00
531, 1861.45, 1858.35, 1861.94, 1861.14, 1860.72, 1858.75, 1860.54, 1860.67, 0.00
532, 1832.11, 1829.02, 1832.31, 1831.61, 1831.28, 1829.07, 1830.70, 1831.03, 0.00
533, 1840.82, 1837.56, 1840.98, 1839.97, 1840.06, 1837.58, 1839.41, 1839.39, 0.00
534, 1870.71, 1867.53, 1870.93, 1869.92, 1869.77, 1867.73, 1869.30, 1869.41, 0.00
535, 1874.93, 1871.87, 1875.38, 1874.26, 1874.13, 1872.09, 1873.75, 1874.08, 0.00
536, 1842.12, 1839.01, 1842.41, 1841.38, 1841.27, 1838.99, 1840.91, 1840.67, 0.00
537, 1811.25, 1808.03, 1811.52, 1810.54, 1810.38, 1808.21, 1810.16, 1809.93, 0.00
538, 1817.33, 1814.25, 1817.82, 1816.79, 1816.24, 1814.13, 1816.46, 1816.24, 0.00
539, 1843.55, 1840.51, 1843.86, 1842.81, 1842.66, 1840.20, 1842.66, 1842.34, 0.00
540, 1847.82, 1844.47, 1847.71, 1847.08, 1846.77, 1844.53, 1846.68, 1846.48, 0.00
541, 1820.55, 1817.31, 1820.66, 1819.81, 1819.16, 1817.17, 1819.36, 1819.54, 0.00
542, 1794.38, 1791.31, 1794.51, 1793.75, 1793.48, 1791.43, 1793.48, 1793.41, 0.00
543, 1797.37, 1794.15, 1797.68, 1796.97, 1796.50, 1794.67, 1796.34, 1796.30, 0.00
544, 1816.15, 1812.99, 1816.50, 1815.72, 1815.30, 1813.26, 1815.12, 1815.12, 0.00
545, 1818.78, 1815.36, 1819.14, 1818.14, 1817.98, 1816.06, 1817.64, 1817.40, 0.00
546, 1798.02, 1794.71, 1798.22, 1797.44, 1797.12, 1795.22, 1796.83, 1796.59, 0.00
547, 1777.86, 1774.50, 1777.95, 1777.25, 1777.10, 1775.00, 1777.01, 1776.43, 0.00
548, 1778.39, 1774.88, 1778.46, 1777.70, 1777.59, 1775.35, 1777.32, 1776.94, 0.00
549, 1789.91, 1786.89, 1790.35, 1789.37, 1789.53, 1787.18, 1788.88, 1788.81, 0.00
550, 1790.87, 1787.60, 1791.16, 1790.15, 1789.95, 1788.09, 1789.88, 1789.84, 0.00
551, 1775.35, 1772.05, 1775.80, 1774.57, 1774.62, 1772.31, 1774.21, 1774.17, 0.00
552, 1759.98, 1756.58, 1760.38, 1759.42, 1759.31, 1757.07, 1758.75, 1758.68, 0.00
553, 1758.75, 1755.33, 1759.02, 1758.12, 1757.92, 1755.95, 1757.67, 1757.54, 0.00
554, 1765.14, 1761.70, 1765.43, 1764.78, 1764.51, 1762.14, 1764.04, 1763.95, 0.00
555, 1764.36, 1760.85, 1764.67, 1763.73, 1763.51, 1761.23, 1763.08, 1762.84, 0.00
556, 1752.64, 1749.58, 1753.11, 1752.26, 1752.18, 1749.98, 1751.64, 1751.48, 0.00
557, 1741.02, 1737.89, 1741.42, 1740.26, 1740.51, 1738.32, 1740.02, 1739.90, 0.00
558, 1738.61, 1735.52, 1739.08, 1738.00, 1737.98, 1735.64, 1737.62, 1737.31, 0.00
559, 1741.38, 1738.18, 1741.71, 1740.78, 1740.80, 1738.56, 1740.17, 1740.11, 0.00
560, 1739.55, 1736.15, 1739.68, 1738.83, 1738.41, 1736.46, 1738.27, 1738.09, 0.00
561, 1730.40, 1727.05, 1730.85, 1729.98, 1729.31, 1727.30, 1729.22, 1729.15, 0.00
562, 1721.35, 1718.13, 1721.82, 1720.95, 1720.46, 1718.51, 1719.97, 1719.94, 0.00
563, 1718.11, 1714.78, 1718.36, 1717.53, 1717.04, 1715.18, 1716.75, 1716.66, 0.00
564, 1718.27, 1714.87, 1718.56, 1717.57, 1717.37, 1715.38, 1717.04, 1717.06, 0.00
565, 1715.47, 1712.30, 1715.70, 1714.74, 1714.60, 1712.50, 1714.40, 1714.29, 0.00
566, 1708.14, 1705.04, 1708.23, 1707.36, 1707.56, 1705.26, 1707.14, 1707.09, 0.00
567, 1700.97, 1697.93, 1701.19, 1700.27, 1700.27, 1698.20, 1700.03, 1699.72, 0.00
568, 1697.48, 1694.19, 1697.61, 1696.63, 1696.45, 1694.53, 1696.41, 1696.21, 0.00
569, 1695.92, 1692.56, 1696.16, 1695.02, 1695.11, 1692.88, 1694.91, 1694.37, 0.00
570, 1692.14, 1689.30, 1692.85, 1691.71, 1691.62, 1689.34, 1691.47, 1690.84, 0.00
571, 1686.28, 1683.00, 1686.57, 1685.50, 1685.75, 1683.27, 1685.43, 1684.99, 0.00
572, 1185.49, 1182.05, 1185.54, 1184.69, 1185.07, 1182.54, 1184.20, 1183.77, 0.00
573, -742.06, -745.86, -743.06, -743.24, -741.74, -744.25, -742.79, -744.25, 0.00
574, -1153.95, -1157.80, -1155.25, -1155.36, -1153.37, -1155.92, -1154.40, -1156.03, 0.00
575, -1930.90, -1934.59, -1932.31, -1932.00, -1929.96, -1932.46, -1931.46, -1933.18, 0.00
576, -2602.59, -2606.50, -2604.29, -2603.87, -2601.21, -2603.96, -2602.61, -2605.01, 0.00
577, -2415.44, -2419.53, -2417.25, -2417.14, -2414.03, -2417.07, -2415.58, -2417.79, 0.00
578, -1860.27, -1864.07, -1861.72, -1861.65, -1859.37, -1862.10, -1860.63, -1862.30, 0.00
579, -1692.97, -1697.10, -1694.57, -1694.55, -1692.38, -1694.95, -1693.68, -1695.38, 0.00
580, -1965.39, -1969.86, -1967.36, -1967.20, -1964.81, -1967.60, -1966.15, -1968.16, 0.00
581, -2205.83, -2210.23, -2207.86, -2207.48, -2204.80, -2207.75, -2206.32, -2208.67, 0.00
582, -2150.44, -2154.60, -2152.11, -2151.82, -2149.37, -2152.18, -2150.60, -2153.01, 0.00
583, -1970.26, -1974.62, -1972.07, -1971.69, -1968.92, -1972.30, -1970.73, -1972.97, 0.00
584, -1908.21, -1912.15, -1909.78, -1909.53, -1906.47, -1909.98, -1908.48, -1910.45, 0.00
585, -1973.21, -1977.12, -1974.66, -1974.26, -1971.78, -1975.00, -1973.61, -1975.60, 0.00
586, -2031.77, -2036.20, -2033.58, -2033.20, -2030.83, -2033.81, -2032.44, -2034.68, 0.00
587, -2024.71, -2028.73, -2026.39, -2026.01, -2023.59, -2026.54, -2025.16, -2027.17, 0.00
588, -1993.64, -1997.51, -1995.00, -1994.69, -1992.70, -1995.52, -1993.75, -1996.10, 0.00
589, -1976.34, -1980.25, -1977.91, -1977.41, -1974.89, -1977.97, -1976.41, -1978.58, 0.00
590, -1965.14, -1968.88, -1966.69, -1966.26, -1963.89, -1966.71, -1965.25, -1967.29, 0.00
591, -1955.44, -1959.76, -1957.12, -1956.74, -1954.41, -1957.14, -1955.80, -1957.74, 0.00
592, -1962.33, -1966.57, -1964.03, -1963.60, -1961.41, -1964.23, -1962.55, -1964.76, 0.00
593, -1981.71, -1985.82, -1983.18, -1982.96, -1980.83, -1983.40, -1981.91, -1984.07, 0.00
594, -1981.01, -1985.33, -1982.60, -1982.17, -1980.30, -1982.80, -1981.12, -1983.54, 0.00
595, -1948.56, -1952.78, -1950.17, -1949.81, -1947.53, -1950.37, -1948.80, -1951.11, 0.00
596, -1918.79, -1922.90, -1920.08, -1920.10, -1917.65, -1920.66, -1918.96, -1921.20, 0.00
597, -1927.06, -1931.21, -1928.75, -1928.33, -1926.05, -1928.73, -1927.55, -1929.34, 0.00
598, -1956.92, -1961.01, -1958.64, -1958.19, -1955.76, -1958.64, -1957.39, -1959.24, 0.00
599, -1960.74, -1965.12, -1962.62, -1962.30, -1959.69, -1962.68, -1961.23, -1963.38, 0.00
600, -1927.55, -1931.95, -1929.34, -1929.22, -1926.85, -1929.47, -1927.90, -1930.07, 0.00
601, -1897.15, -1900.95, -1898.58, -1898.15, -1895.81, -1898.51, -1897.19, -1899.27, 0.00
602, -1902.78, -1906.89, -1904.32, -1903.88, -1901.53, -1904.28, -1902.92, -1905.04, 0.00
603, -1928.69, -1932.96, -1930.12, -1929.85, -1927.59, -1930.32, -1928.73, -1931.01, 0.00
604, -1932.78, -1936.73, -1934.19, -1934.05, -1931.53, -1934.45, -1932.80, -1935.10, 0.00
605, -1905.08, -1909.02, -1906.51, -1906.29, -1904.21, -1906.60, -1905.26, -1907.30, 0.00
606, -1879.04, -1883.13, -1880.32, -1880.41, -1877.93, -1880.81, -1878.93, -1881.28, 0.00
607, -1881.86, -1885.84, -1883.22, -1883.27, -1880.83, -1883.47, -1881.95, -1883.98, 0.00
608, -1900.32, -1904.35, -1901.66, -1901.60, -1899.45, -1902.13, -1900.64, -1902.58, 0.00
609, -1902.85, -1906.83, -1904.06, -1904.08, -1901.78, -1904.48, -1902.98, -1905.13, 0.00
610, -1881.64, -1886.02, -1883.13, -1882.91, -1880.68, -1883.31, -1881.93, -1883.85, 0.00
611, -1861.16, -1865.48, -1862.86, -1862.46, -1860.16, -1862.91, -1861.23, -1863.46, 0.00
612, -1861.39, -1865.66, -1862.68, -1862.86, -1860.51, -1863.17, -1861.59, -1863.73, 0.00
613, -1873.01, -1877.39, -1874.69, -1874.42, -1872.14, -1874.86, -1873.21, -1875.38, 0.00
614, -1873.55, -1877.84, -1875.29, -1875.13, -1872.63, -1875.40, -1873.68, -1875.98, 0.00
615, -1857.72, -1862.01, -1859.28, -1859.08, -1856.96, -1859.78, -1857.97, -1860.22, 0.00
616, -1842.54, -1846.52, -1843.66, -1843.73, -1841.40, -1844.24, -1842.63, -1844.76, 0.00
617, -1840.87, -1844.96, -1842.52, -1842.23, -1839.86, -1842.81, -1841.09, -1843.17, 0.00
618, -1847.30, -1851.26, -1848.53, -1848.47, -1846.19, -1848.78, -1847.46, -1849.52, 0.00
619, -1846.25, -1850.21, -1847.48, -1847.66, -1845.05, -1847.55, -1846.28, -1848.20, 0.00
620, -1834.36, -1838.43, -1835.75, -1835.59, -1833.09, -1835.88, -1834.59, -1836.44, 0.00
621, -1822.43, -1826.43, -1823.95, -1823.77, -1821.42, -1824.10, -1822.81, -1824.75, 0.00
622, -1819.63, -1823.72, -1821.26, -1821.09, -1818.67, -1821.47, -1819.92, -1821.98, 0.00
623, -1822.18, -1826.52, -1823.70, -1823.70, -1821.11, -1823.95, -1822.27, -1824.55, 0.00
624, -1819.95, -1824.26, -1821.31, -1821.53, -1818.94, -1821.67, -1819.97, -1822.11, 0.00
625, -1810.98, -1814.87, -1812.19, -1812.19, -1809.87, -1812.70, -1810.96, -1812.86, 0.00
626, -1801.66, -1805.91, -1803.14, -1803.18, -1800.86, -1803.45, -1801.75, -1803.79, 0.00
627, -1798.26, -1802.58, -1799.70, -1799.70, -1797.21, -1799.96, -1798.44, -1800.41, 0.00
628, -1798.06, -1802.24, -1799.45, -1799.32, -1797.04, -1800.08, -1798.33, -1800.25, 0.00
629, -1795.25, -1799.20, -1796.52, -1796.36, -1794.22, -1797.06, -1795.34, -1797.15, 0.00
630, -1787.67, -1791.83, -1789.15, -1789.12, -1786.69, -1789.61, -1787.83, -1789.84, 0.00
631, -1780.41, -1784.32, -1781.55, -1781.75, -1779.22, -1782.06, -1780.41, -1782.33, 0.00
632, -1776.87, -1780.61, -1777.61, -1777.79, -1775.62, -1778.33, -1776.40, -1778.28, 0.00
633, -1774.86, -1778.53, -1776.05, -1775.82, -1773.70, -1776.43, -1774.77, -1776.74, 0.00
634, -1771.24, -1775.09, -1772.56, -1772.36, -1770.08, -1772.74, -1771.44, -1773.32, 0.00
635, -1764.96, -1769.03, -1766.10, -1766.01, -1763.82, -1766.32, -1765.05, -1766.88, 0.00
636, -1263.83, -1267.79, -1264.91, -1264.95, -1262.85, -1265.29, -1263.86, -1265.65, 0.00
637, 664.18, 660.65, 663.85, 663.35, 664.18, 661.97, 663.56, 662.75, 0.00
638, 1075.92, 1072.73, 1076.33, 1075.16, 1075.79, 1073.55, 1075.45, 1074.90, 0.00
639, 1852.80, 1849.90, 1853.56, 1852.45, 1852.60, 1850.28, 1852.69, 1852.36, 0.00
640, 2524.61, 2522.04, 2525.68, 2524.67, 2524.12, 2521.66, 2524.34, 2524.14, 0.00
641, 2338.04, 2335.33, 2338.93, 2337.86, 2337.03, 2334.84, 2337.34, 2337.14, 0.00
642, 1783.04, 1780.20, 1783.62, 1782.82, 1782.48, 1780.32, 1782.51, 1781.95, 0.00
643, 1616.10, 1613.13, 1616.46, 1615.72, 1615.49, 1613.37, 1615.56, 1615.11, 0.00
644, 1889.10, 1885.91, 1889.39, 1888.81, 1887.92, 1886.22, 1888.19, 1887.85, 0.00
645, 2129.54, 2126.68, 2130.30, 2129.18, 2128.51, 2126.63, 2128.76, 2128.53, 0.00
646, 2074.38, 2071.09, 2074.76, 2073.73, 2073.35, 2071.16, 2073.44, 2073.33, 0.00
647, 1894.02, 1890.89, 1894.76, 1893.91, 1893.30, 1891.20, 1893.44, 1892.81, 0.00
648, 1832.04, 1828.84, 1832.82, 1831.93, 1831.43, 1829.29, 1831.50, 1831.05, 0.00
649, 1897.35, 1894.29, 1898.09, 1897.13, 1896.93, 1894.49, 1896.99, 1896.30, 0.00
650, 1956.38, 1953.45, 1957.36, 1956.20, 1955.73, 1953.61, 1955.80, 1955.49, 0.00
651, 1949.23, 1946.41, 1950.30, 1949.12, 1948.69, 1946.79, 1948.74, 1948.60, 0.00
652, 1918.45, 1915.61, 1919.21, 1918.25, 1917.87, 1915.81, 1918.14, 1917.65, 0.00
653, 1901.22, 1898.53, 1902.20, 1900.90, 1900.90, 1898.56, 1900.59, 1900.32, 0.00
654, 1890.11, 1887.31, 1891.00, 1889.95, 1889.93, 1887.58, 1889.59, 1889.17, 0.00
655, 1880.54, 1877.68, 1881.41, 1880.56, 1880.47, 1878.17, 1880.12, 1879.83, 0.00
656, 1887.69, 1885.06, 1888.66, 1887.74, 1887.69, 1885.26, 1887.49, 1887.09, 0.00
657, 1907.45, 1904.59, 1908.06, 1907.14, 1906.94, 1904.82, 1906.96, 1906.72, 0.00
658, 1906.92, 1904.17, 1907.92, 1906.89, 1906.49, 1904.48, 1906.49, 1906.42, 0.00
659, 1874.75, 1871.76, 1875.47, 1874.57, 1874.08, 1872.18, 1874.06, 1873.79, 0.00
660, 1845.43, 1842.30, 1845.87, 1845.09, 1844.60, 1842.90, 1844.67, 1844.33, 0.00
661, 1853.72, 1850.63, 1854.46, 1853.67, 1853.16, 1851.26, 1853.05, 1852.94, 0.00
662, 1883.54, 1880.72, 1884.39, 1883.29, 1883.31, 1880.94, 1882.98, 1882.80, 0.00
663, 1887.81, 1885.10, 1888.61, 1887.43, 1887.54, 1885.30, 1887.65, 1887.09, 0.00
664, 1854.84, 1852.07, 1855.49, 1854.50, 1854.37, 1852.40, 1854.50, 1854.05, 0.00
665, 1823.92, 1821.22, 1825.00, 1823.61, 1823.63, 1821.38, 1823.75, 1823.19, 0.00
666, 1829.78, 1827.28, 1830.92, 1829.78, 1829.85, 1827.52, 1829.76, 1828.95, 0.00
667, 1856.40, 1853.38, 1857.14, 1856.04, 1855.82, 1853.83, 1855.69, 1855.19, 0.00
668, 1860.65, 1857.54, 1861.25, 1860.54, 1860.09, 1858.01, 1859.89, 1859.69, 0.00
669, 1833.20, 1830.14, 1834.09, 1833.18, 1832.89, 1830.63, 1832.57, 1832.44, 0.00
670, 1807.16, 1804.26, 1808.05, 1806.94, 1806.76, 1804.57, 1806.67, 1806.40, 0.00
671, 1810.27, 1807.18, 1811.03, 1809.91, 1809.57, 1807.50, 1809.71, 1809.62, 0.00
672, 1829.11, 1825.89, 1829.65, 1828.75, 1828.48, 1826.52, 1828.55, 1828.22, 0.00
673, 1831.46, 1828.53, 1832.22, 1831.19, 1830.83, 1828.84, 1831.10, 1830.74, 0.00
674, 1810.49, 1807.81, 1811.43, 1810.20, 1810.00, 1808.05, 1810.33, 1809.95, 0.00
675, 1790.44, 1787.69, 1791.02, 1790.04, 1789.84, 1787.80, 1789.97, 1789.50, 0.00
676, 1790.73, 1788.18, 1791.58, 1790.71, 1790.46, 1788.14, 1790.46, 1789.97, 0.00
677, 1802.49, 1800.03, 1803.49, 1802.53, 1802.06, 1800.03, 1802.20, 1801.82, 0.00
678, 1802.91, 1800.37, 1804.05, 1803.05, 1802.85, 1800.59, 1802.80, 1802.29, 0.00
679, 1787.71, 1785.03, 1788.50, 1787.56, 1787.36, 1785.19, 1787.29, 1786.93, 0.00
680, 1772.60, 1769.57, 1773.12, 1772.29, 1772.09, 1770.19, 1771.96, 1771.76, 0.00
681, 1771.13, 1768.18, 1771.87, 1770.93, 1770.48, 1768.76, 1770.48, 1770.62, 0.00
682, 1777.52, 1774.59, 1778.46, 1777.23, 1777.05, 1775.02, 1777.19, 1776.83, 0.00
683, 1776.74, 1773.99, 1777.57, 1776.43, 1776.23, 1774.12, 1776.27, 1776.09, 0.00
684, 1765.18, 1762.37, 1765.97, 1764.74, 1764.58, 1762.50, 1764.76, 1764.49, 0.00
685, 1753.36, 1750.77, 1754.39, 1753.32, 1753.23, 1750.81, 1753.23, 1752.60, 0.00
686, 1751.04, 1748.42, 1751.91, 1750.83, 1750.68, 1748.38, 1750.79, 1750.25, 0.00
687, 1753.67, 1751.12, 1754.77, 1753.45, 1753.20, 1751.21, 1753.32, 1753.09, 0.00
688, 1751.57, 1748.76, 1752.33, 1751.39, 1751.30, 1749.18, 1751.10, 1750.79, 0.00
689, 1742.47, 1739.77, 1743.44, 1742.50, 1742.21, 1740.02, 1741.98, 1741.74, 0.00
690, 1733.47, 1730.70, 1734.27, 1733.44, 1733.13, 1730.85, 1733.09, 1732.73, 0.00
691, 1730.40, 1727.41, 1731.12, 1729.94, 1730.23, 1727.90, 1730.09, 1729.58, 0.00
692, 1730.34, 1727.41, 1731.03, 1730.16, 1730.02, 1727.88, 1730.02, 1729.58, 0.00
693, 1727.50, 1724.86, 1728.50, 1727.32, 1727.28, 1725.00, 1727.43, 1727.05, 0.00
694, 1720.35, 1717.57, 1721.42, 1720.21, 1720.21, 1717.87, 1720.15, 1719.88, 0.00
695, 1713.10, 1710.27, 1714.29, 1712.84, 1712.79, 1710.65, 1712.66, 1712.52, 0.00
696, 1709.30, 1706.51, 1710.56, 1709.17, 1708.86, 1706.73, 1708.95, 1708.90, 0.00
697, 1707.78, 1704.99, 1708.81, 1707.76, 1707.34, 1705.04, 1707.32, 1707.11, 0.00
698, 1704.52, 1701.73, 1705.30, 1704.28, 1704.10, 1701.93, 1704.10, 1703.52, 0.00
699, 1698.55, 1695.51, 1699.18, 1698.22, 1698.04, 1695.92, 1698.20, 1697.59, 0.00
700, 1197.20, 1194.59, 1197.96, 1197.00, 1197.36, 1194.95, 1197.18, 1196.15, 0.00
701, -730.03, -733.34, -730.61, -731.01, -729.18, -731.95, -730.03, -731.84, 0.00
702, -1141.77, -1145.42, -1142.60, -1142.89, -1140.70, -1143.36, -1141.57, -1143.65, 0.00
703, -1918.92, -1922.38, -1919.84, -1919.86, -1917.38, -1920.26, -1918.56, -1920.95, 0.00
704, -2590.50, -2594.34, -2591.64, -2591.48, -2588.96, -2591.59, -2590.01, -2592.62, 0.00
705, -2403.46, -2407.53, -2404.96, -2404.51, -2401.87, -2404.62, -2402.92, -2405.63, 0.00
706, -1848.27, -1851.93, -1849.38, -1849.25, -1846.81, -1849.49, -1847.97, -1850.37, 0.00
707, -1681.52, -1684.85, -1682.17, -1681.99, -1679.80, -1682.59, -1681.14, -1683.40, 0.00
708, -1954.15, -1957.43, -1955.02, -1955.02, -1952.09, -1955.17, -1953.74, -1955.84, 0.00
709, -2194.20, -2197.74, -2195.46, -2195.30, -2192.53, -2195.34, -2194.16, -2196.42, 0.00
710, -2138.84, -2142.35, -2140.00, -2139.73, -2137.01, -2140.16, -2138.64, -2141.07, 0.00
711, -1958.79, -1962.01, -1959.69, -1959.55, -1957.30, -1960.18, -1958.50, -1960.63, 0.00
712, -1896.25, -1900.08, -1897.39, -1897.22, -1895.20, -1897.86, -1896.19, -1898.53, 0.00
713, -1961.19, -1965.14, -1962.42, -1962.53, -1959.80, -1962.66, -1961.28, -1963.29, 0.00
714, -2020.26, -2024.08, -2021.49, -2021.51, -2019.01, -2021.76, -2020.13, -2022.50, 0.00
715, -2013.09, -2016.78, -2014.14, -2014.07, -2011.66, -2014.25, -2012.80, -2015.28, 0.00
716, -1982.17, -1985.80, -1983.11, -1983.05, -1980.54, -1983.14, -1981.86, -1983.99, 0.00
717, -1964.76, -1968.43, -1965.90, -1965.57, -1963.18, -1965.84, -1964.56, -1966.66, 0.00
718, -1953.77, -1957.36, -1954.73, -1954.57, -1951.98, -1954.88, -1953.23, -1955.35, 0.00
719, -1944.04, -1947.78, -1945.09, -1944.71, -1942.59, -1945.29, -1943.60, -1945.61, 0.00
720, 1034.04, 1031.09, 1034.30, 1033.59, 1034.06, 1031.76, 1033.39, 1033.08, 0.00
721, 614.99, 611.92, 615.19, 614.58, 615.43, 612.77, 614.74, 614.11, 0.00
722, 1674.06, 1671.20, 1674.68, 1673.83, 1673.72, 1671.46, 1673.63, 1673.09, 0.00
723, 2518.04, 2515.38, 2519.33, 2518.26, 2517.32, 2515.29, 2517.39, 2517.36, 0.00
724, 2233.86, 2231.31, 2235.11, 2234.10, 2233.56, 2231.13, 2233.41, 2233.23, 0.00
725, 1507.16, 1504.47, 1508.14, 1507.04, 1507.07, 1504.81, 1506.98, 1506.57, 0.00
726, 1309.34, 1306.59, 1310.48, 1309.23, 1309.28, 1307.26, 1309.12, 1308.56, 0.00
727, 1679.64, 1677.12, 1680.52, 1679.60, 1679.49, 1677.19, 1679.47, 1679.00, 0.00
728, 1997.71, 1995.54, 1998.96, 1997.60, 1997.37, 1995.21, 1997.53, 1997.13, 0.00
729, 1924.80, 1922.38, 1926.00, 1924.60, 1924.31, 1922.36, 1924.51, 1924.06, 0.00
730, 1684.05, 1681.50, 1685.05, 1684.05, 1684.02, 1681.66, 1684.09, 1683.31, 0.00
731, 1595.74, 1593.21, 1596.52, 1595.62, 1595.69, 1593.39, 1595.53, 1595.06, 0.00
732, 1683.20, 1680.54, 1684.16, 1682.84, 1683.11, 1680.65, 1682.86, 1682.48, 0.00
733, 1775.02, 1772.27, 1775.94, 1774.86, 1774.66, 1772.58, 1774.64, 1774.24, 0.00
734, 1777.86, 1774.93, 1778.51, 1777.52, 1777.54, 1775.29, 1777.50, 1777.19, 0.00
735, 1732.28, 1729.51, 1733.02, 1732.26, 1732.08, 1729.73, 1731.99, 1731.66, 0.00
736, 1695.94, 1693.37, 1696.83, 1695.92, 1695.60, 1693.41, 1695.94, 1695.29, 0.00
737, 1679.73, 1676.98, 1680.78, 1679.85, 1679.55, 1677.21, 1679.67, 1679.20, 0.00
738, 1682.30, 1679.67, 1683.35, 1682.68, 1682.28, 1679.82, 1682.19, 1681.86, 0.00
739, 1705.35, 1702.98, 1706.47, 1705.59, 1705.30, 1703.14, 1705.57, 1705.21, 0.00
740, 1727.66, 1725.40, 1728.82, 1727.90, 1727.77, 1725.78, 1727.74, 1727.48, 0.00
741, 1714.94, 1712.28, 1715.54, 1714.92, 1714.69, 1712.48, 1714.67, 1714.49, 0.00
742, 1670.28, 1667.44, 1670.95, 1670.08, 1670.06, 1667.86, 1670.12, 1669.85, 0.00
743, 1644.19, 1641.44, 1645.02, 1644.24, 1643.93, 1641.91, 1644.02, 1643.34, 0.00
744, 1667.44, 1664.78, 1668.04, 1667.26, 1667.15, 1664.94, 1666.99, 1666.59, 0.00
745, 1704.83, 1701.93, 1705.59, 1704.70, 1704.45, 1702.20, 1704.39, 1704.05, 0.00
746, 1700.97, 1698.15, 1701.93, 1700.88, 1700.72, 1698.42, 1700.79, 1700.34, 0.00
747, 1656.24, 1653.47, 1657.09, 1656.11, 1655.82, 1653.60, 1656.00, 1655.71, 0.00
748, 1625.24, 1622.89, 1626.22, 1625.35, 1625.33, 1623.03, 1625.24, 1624.79, 0.00
749, 1642.50, 1640.04, 1643.37, 1642.45, 1642.54, 1640.26, 1642.47, 1642.16, 0.00
750, 1676.29, 1673.79, 1677.21, 1676.49, 1676.36, 1673.97, 1676.20, 1675.64, 0.00
751, 1675.53, 1673.14, 1676.76, 1675.82, 1675.42, 1673.25, 1675.55, 1675.06, 0.00
752, 1638.99, 1636.66, 1640.13, 1639.37, 1639.08, 1637.06, 1639.01, 1638.47, 0.00
753, 1612.32, 1609.62, 1613.21, 1612.21, 1612.19, 1610.04, 1612.07, 1611.52, 0.00
754, 1623.03, 1620.59, 1624.32, 1623.03, 1622.92, 1620.66, 1622.96, 1622.51, 0.00
755, 1647.93, 1645.58, 1649.13, 1647.97, 1647.86, 1645.38, 1648.02, 1647.48, 0.00
756, 1647.84, 1645.31, 1648.75, 1647.66, 1647.48, 1645.27, 1647.46, 1646.99, 0.00
757, 1620.23, 1617.73, 1621.04, 1620.19, 1620.23, 1617.91, 1620.03, 1619.58, 0.00
758, 1599.18, 1596.61, 1599.80, 1599.13, 1598.95, 1596.54, 1599.00, 1598.62, 0.00
759, 1605.15, 1602.44, 1605.82, 1605.08, 1604.79, 1602.40, 1604.97, 1604.68, 0.00
760, 1621.55, 1618.85, 1622.29, 1621.40, 1621.15, 1618.91, 1621.37, 1620.72, 0.00
761, 1620.61, 1618.27, 1621.46, 1620.55, 1620.59, 1618.15, 1620.55, 1619.90, 0.00
762, 1600.76, 1598.22, 1601.57, 1600.65, 1600.45, 1598.35, 1600.81, 1600.07, 0.00
763, 1584.89, 1582.44, 1585.79, 1584.78, 1584.45, 1582.12, 1584.83, 1584.31, 0.00
764, 1587.13, 1584.29, 1587.91, 1587.17, 1586.86, 1584.60, 1586.91, 1586.33, 0.00
765, 1596.56, 1593.66, 1597.64, 1596.61, 1596.25, 1594.17, 1596.43, 1596.23, 0.00
766, 1594.86, 1592.09, 1595.78, 1594.86, 1594.57, 1592.61, 1595.06, 1594.60, 0.00
767, 1580.76, 1578.06, 1581.61, 1580.58, 1580.58, 1578.03, 1580.67, 1580.13, 0.00
768, 1568.44, 1565.92, 1569.41, 1568.33, 1568.49, 1566.19, 1568.71, 1567.95, 0.00
769, 1568.58, 1565.85, 1569.20, 1568.20, 1568.58, 1566.12, 1568.62, 1567.84, 0.00
770, 1573.50, 1570.93, 1574.08, 1573.20, 1573.43, 1570.75, 1573.27, 1572.36, 0.00
771, 1571.01, 1568.87, 1572.02, 1570.90, 1571.28, 1568.53, 1571.01, 1570.19, 0.00
772, 1560.55, 1558.12, 1561.47, 1560.46, 1560.58, 1558.01, 1560.35, 1559.68, 0.00
773, 1551.14, 1548.86, 1552.19, 1551.08, 1550.94, 1548.69, 1551.12, 1550.25, 0.00
774, 1549.51, 1547.19, 1550.74, 1549.42, 1549.49, 1547.10, 1549.45, 1548.75, 0.00
775, 1551.37, 1548.93, 1552.28, 1551.17, 1551.28, 1548.95, 1551.30, 1550.52, 0.00
776, 1548.62, 1545.94, 1549.22, 1548.42, 1548.60, 1546.11, 1548.31, 1547.79, 0.00
777, 1540.42, 1537.82, 1541.31, 1540.21, 1540.28, 1537.78, 1540.39, 1539.59, 0.00
778, 1533.02, 1530.45, 1533.84, 1533.02, 1533.04, 1530.31, 1532.77, 1532.21, 0.00
779, 1035.53, 1032.96, 1036.23, 1035.51, 1035.76, 1033.01, 1035.35, 1034.37, 0.00
780, -888.39, -891.16, -888.75, -888.88, -887.41, -890.16, -888.28, -889.96, 0.00
781, -1300.71, -1304.09, -1301.70, -1301.47, -1299.55, -1302.66, -1300.51, -1302.50, 0.00
782, -2080.41, -2083.85, -2081.75, -2081.17, -2078.85, -2082.00, -2080.12, -2082.47, 0.00
783, -2752.53, -2756.15, -2754.32, -2753.71, -2750.63, -2753.96, -2752.24, -2755.01, 0.00
784, -2563.52, -2567.08, -2565.13, -2564.68, -2561.53, -2564.80, -2562.98, -2565.67, 0.00
785, -2006.05, -2009.58, -2007.23, -2006.69, -2004.53, -2007.72, -2005.42, -2008.01, 0.00
786, -1839.26, -1842.66, -1840.40, -1840.00, -1837.96, -1840.98, -1838.72, -1841.34, 0.00
787, -2113.65, -2116.89, -2114.43, -2114.25, -2111.97, -2114.97, -2113.07, -2115.48, 0.00
788, -2354.20, -2357.68, -2355.45, -2355.14, -2352.41, -2355.61, -2353.66, -2356.19, 0.00
789, -2297.11, -2300.55, -2298.56, -2298.14, -2295.30, -2298.43, -2296.57, -2299.21, 0.00
790, -2115.68, -2118.92, -2116.64, -2116.37, -2113.92, -2116.89, -2115.23, -2117.29, 0.00
791, -2053.19, -2056.61, -2054.39, -2054.17, -2051.51, -2054.80, -2052.92, -2055.09, 0.00
792, -2119.30, -2122.81, -2120.47, -2120.20, -2117.54, -2120.53, -2118.63, -2120.89, 0.00
793, -2178.38, -2181.75, -2179.65, -2178.98, -2176.66, -2179.76, -2177.66, -2179.94, 0.00
794, -2170.22, -2173.39, -2171.27, -2170.96, -2168.70, -2171.52, -2169.48, -2171.90, 0.00
795, -2137.99, -2141.57, -2139.20, -2138.91, -2136.29, -2139.15, -2137.25, -2139.84, 0.00
796, -2120.55, -2123.97, -2121.52, -2121.31, -2118.52, -2121.69, -2120.00, -2122.12, 0.00
797, -2109.83, -2113.16, -2110.61, -2110.47, -2107.88, -2110.94, -2109.11, -2111.46, 0.00
798, -2100.10, -2103.46, -2101.40, -2100.59, -2098.09, -2101.44, -2099.45, -2101.78, 0.00
799, -2106.32, -2109.98, -2107.52, -2106.92, -2104.26, -2107.84, -2105.62, -2108.08, 0.00
800, -2124.78, -2128.40, -2126.14, -2125.52, -2123.04, -2126.46, -2124.24, -2126.86, 0.00
801, -2124.15, -2127.57, -2125.38, -2124.62, -2122.41, -2125.63, -2123.30, -2126.12, 0.00
802, -2091.43, -2095.07, -2092.66, -2092.21, -2090.04, -2093.08, -2090.80, -2093.60, 0.00
803, -2061.68, -2065.21, -2062.64, -2062.40, -2060.03, -2063.13, -2061.23, -2063.83, 0.00
804, -2069.64, -2072.99, -2070.53, -2070.22, -2067.80, -2070.89, -2069.06, -2071.47, 0.00
805, -2098.67, -2102.34, -2099.90, -2099.36, -2097.04, -2100.33, -2098.14, -2100.64, 0.00
806, -2102.74, -2106.20, -2103.79, -2103.46, -2101.00, -2104.19, -2102.14, -2104.53, 0.00
807, -2069.61, -2073.08, -2070.62, -2070.17, -2067.89, -2071.07, -2068.94, -2071.47, 0.00
808, -2038.34, -2041.72, -2039.24, -2038.88, -2036.76, -2039.86, -2037.56, -2040.09, 0.00
809, -2043.75, -2047.17, -2044.60, -2044.40, -2042.17, -2045.23, -2043.04, -2045.52, 0.00
810, -2069.55, -2072.77, -2070.53, -2069.88, -2067.71, -2070.84, -2068.59, -2071.11, 0.00
811, -2073.17, -2076.34, -2074.22, -2073.66, -2071.27, -2074.44, -2072.43, -2074.91, 0.00
812, -2045.47, -2048.58, -2046.46, -2046.21, -2043.58, -2046.66, -2044.63, -2047.15, 0.00
813, -2019.14, -2022.47, -2020.31, -2019.79, -2017.45, -2020.44, -2018.36, -2020.87, 0.00
814, -2021.56, -2024.84, -2022.34, -2022.27, -2019.79, -2022.88, -2020.96, -2023.48, 0.00
815, -2039.64, -2042.84, -2040.36, -2040.38, -2038.19, -2041.07, -2039.04, -2041.65, 0.00
816, -2041.74, -2045.09, -2042.23, -2042.26, -2040.07, -2043.02, -2040.98, -2043.58, 0.00
817, -2020.33, -2023.88, -2021.40, -2020.96, -2018.88, -2021.92, -2019.93, -2022.32, 0.00
818, -1999.81, -2003.10, -2000.93, -2000.44, -1998.25, -2001.40, -1999.14, -2001.71, 0.00
819, -1999.79, -2003.05, -2000.59, -2000.50, -1998.42, -2001.11, -1998.94, -2001.58, 0.00
820, -2011.10, -2014.36, -2012.17, -2011.70, -2009.65, -2012.60, -2010.36, -2012.71, 0.00
821, -2011.28, -2014.74, -2012.55, -2012.15, -2009.98, -2012.84, -2010.76, -2013.24, 0.00
822, -1995.27, -1998.67, -1996.46, -1996.23, -1994.16, -1996.95, -1994.80, -1997.24, 0.00
823, -1979.45, -1983.20, -1980.88, -1980.50, -1978.29, -1981.33, -1979.14, -1981.53, 0.00
824, -1977.82, -1981.48, -1979.00, -1978.62, -1976.48, -1979.38, -1977.35, -1979.87, 0.00
825, -1983.74, -1987.29, -1984.92, -1984.68, -1982.33, -1985.01, -1983.40, -1985.84, 0.00
826, -1982.53, -1985.95, -1983.52, -1983.25, -1981.08, -1983.94, -1981.91, -1984.57, 0.00
827, -1970.40, -1973.95, -1971.42, -1971.33, -1968.83, -1971.78, -1970.04, -1972.50, 0.00
828, -1958.10, -1961.92, -1959.29, -1959.11, -1956.67, -1959.47, -1957.83, -1960.16, 0.00
829, -1955.29, -1958.75, -1956.72, -1956.09, -1953.92, -1957.01, -1954.95, -1957.21, 0.00
830, -1957.50, -1961.01, -1958.77, -1958.41, -1956.09, -1959.13, -1957.10, -1959.31, 0.00
831, -1955.08, -1958.41, -1956.27, -1955.98, -1953.52, -1956.47, -1954.39, -1956.76, 0.00
832, -1945.74, -1948.92, -1946.84, -1946.48, -1944.18, -1947.10, -1944.96, -1947.53, 0.00
833, -1936.58, -1939.55, -1937.38, -1936.96, -1934.66, -1937.78, -1935.86, -1938.23, 0.00
834, -1932.49, -1936.00, -1933.65, -1933.29, -1930.88, -1934.01, -1931.95, -1934.36, 0.00
835, -1932.04, -1935.41, -1933.29, -1932.78, -1930.52, -1933.87, -1931.73, -1933.83, 0.00
836, -1928.64, -1932.29, -1929.85, -1929.47, -1927.14, -1930.65, -1928.28, -1930.52, 0.00
837, -1921.04, -1924.73, -1922.32, -1921.80, -1919.79, -1922.94, -1920.77, -1922.92, 0.00
838, -1913.42, -1916.80, -1914.49, -1914.05, -1912.06, -1915.10, -1912.82, -1915.28, 0.00
839, -1909.51, -1912.95, -1910.54, -1909.96, -1907.88, -1910.83, -1908.82, -1911.30, 0.00
840, -1907.21, -1910.81, -1908.35, -1907.99, -1905.73, -1908.79, -1906.60, -1909.38, 0.00
841, -1903.59, -1907.03, -1904.52, -1904.17, -1902.02, -1905.13, -1902.76, -1905.35, 0.00
842, -1897.15, -1900.37, -1898.24, -1897.89, -1895.34, -1898.62, -1896.39, -1898.85, 0.00
843, -1395.53, -1398.77, -1396.29, -1396.25, -1394.26, -1397.43, -1394.84, -1396.96, 0.00
844, 532.26, 529.76, 532.66, 532.15, 532.73, 529.89, 532.93, 531.59, 0.00
845, 944.41, 942.10, 944.79, 944.52, 944.74, 942.04, 944.65, 943.78, 0.00
846, 1721.82, 1719.50, 1722.47, 1722.02, 1721.67, 1719.14, 1721.96, 1721.13, 0.00
847, 2394.14, 2391.68, 2394.90, 2394.21, 2393.31, 2391.06, 2394.01, 2393.47, 0.00
848, 2207.66, 2205.25, 2208.53, 2207.68, 2207.15, 2204.46, 2207.23, 2206.90, 0.00
849, 1652.93, 1650.32, 1653.45, 1652.67, 1652.40, 1649.85, 1652.82, 1651.95, 0.00
850, 1486.35, 1483.64, 1486.77, 1486.10, 1486.01, 1483.28, 1486.39, 1485.36, 0.00
851, 1759.26, 1756.78, 1760.00, 1759.31, 1758.99, 1756.29, 1759.19, 1758.66, 0.00
852, 2000.01, 1997.64, 2000.70, 2000.19, 1999.52, 1997.11, 2000.08, 1999.39, 0.00
853, 1944.96, 1942.41, 1945.72, 1945.09, 1944.58, 1942.03, 1944.83, 1944.09, 0.00
854, 1765.18, 1762.66, 1765.81, 1765.34, 1765.05, 1762.21, 1765.03, 1764.49, 0.00
855, 1703.52, 1701.08, 1704.21, 1703.47, 1703.20, 1700.72, 1703.40, 1702.76, 0.00
856, 1768.76, 1766.61, 1769.83, 1768.98, 1768.72, 1766.06, 1768.92, 1768.38, 0.00
857, 1828.10, 1825.87, 1829.04, 1828.37, 1827.88, 1825.24, 1828.08, 1827.63, 0.00
858, 1821.42, 1819.12, 1822.38, 1821.42, 1821.13, 1818.47, 1821.60, 1821.00, 0.00
859, 1790.73, 1788.47, 1791.60, 1790.67, 1790.51, 1787.89, 1790.80, 1790.20, 0.00
860, 1773.86, 1771.42, 1774.50, 1773.92, 1773.61, 1771.00, 1773.66, 1772.92, 0.00
861, 1763.35, 1760.76, 1763.69, 1763.13, 1762.79, 1760.20, 1762.97, 1762.30, 0.00
862, 1754.03, 1751.46, 1754.52, 1754.08, 1753.70, 1750.97, 1753.74, 1753.14, 0.00
863, 1761.14, 1758.84, 1762.08, 1761.34, 1760.85, 1758.43, 1761.32, 1760.49, 0.00
864, 1781.14, 1778.57, 1781.79, 1781.30, 1780.72, 1778.15, 1781.05, 1780.29, 0.00
865, 1780.94, 1778.37, 1781.77, 1781.03, 1780.47, 1777.95, 1781.03, 1779.91, 0.00
866, 1748.71, 1746.05, 1749.85, 1748.87, 1748.35, 1745.87, 1748.91, 1747.97, 0.00
867, 1719.52, 1716.84, 1720.21, 1719.63, 1719.23, 1716.52, 1719.52, 1718.74, 0.00
868, 1728.39, 1725.55, 1728.97, 1728.48, 1727.97, 1725.17, 1728.44, 1727.45, 0.00
869, 1758.48, 1755.89, 1759.19, 1758.50, 1758.21, 1755.62, 1758.41, 1757.76, 0.00
870, 1763.15, 1760.53, 1763.73, 1762.97, 1762.61, 1759.98, 1763.06, 1762.39, 0.00
871, 1730.34, 1727.83, 1730.90, 1730.45, 1729.91, 1727.21, 1730.27, 1729.20, 0.00
872, 1699.69, 1697.48, 1700.61, 1699.74, 1699.56, 1696.90, 1699.54, 1698.53, 0.00
873, 1705.93, 1703.56, 1706.67, 1706.09, 1705.80, 1703.02, 1706.04, 1705.10, 0.00
874, 1732.37, 1729.91, 1733.13, 1732.37, 1732.08, 1729.38, 1732.04, 1731.41, 0.00
875, 1736.57, 1734.05, 1737.47, 1736.91, 1736.40, 1733.71, 1736.78, 1735.95, 0.00
876, 1709.51, 1707.05, 1710.42, 1709.66, 1709.55, 1706.73, 1709.86, 1709.10, 0.00
877, 1684.23, 1681.54, 1684.67, 1683.96, 1683.69, 1681.03, 1683.96, 1683.38, 0.00
878, 1687.22, 1684.74, 1688.12, 1687.04, 1686.77, 1684.25, 1687.15, 1686.35, 0.00
879, 1706.11, 1703.67, 1706.80, 1706.29, 1705.88, 1703.11, 1706.20, 1705.26, 0.00
880, 1709.06, 1706.60, 1709.64, 1708.97, 1708.81, 1705.97, 1708.99, 1708.10, 0.00
881, 1688.56, 1685.72, 1689.01, 1688.36, 1688.12, 1685.32, 1688.52, 1687.42, 0.00
882, 1668.40, 1665.85, 1669.07, 1668.54, 1667.93, 1665.32, 1668.65, 1667.57, 0.00
883, 1669.09, 1666.66, 1669.74, 1669.43, 1668.69, 1666.03, 1669.34, 1668.13, 0.00
884, 1681.23, 1678.86, 1682.06, 1681.54, 1681.05, 1678.10, 1681.39, 1680.43, 0.00
885, 1681.97, 1679.73, 1682.86, 1682.10, 1681.77, 1679.17, 1682.08, 1681.25, 0.00
886, 1666.72, 1664.38, 1667.69, 1666.70, 1666.57, 1663.82, 1666.77, 1665.92, 0.00
887, 1651.88, 1649.51, 1652.42, 1651.93, 1651.77, 1648.80, 1651.88, 1650.81, 0.00
888, 1650.52, 1648.40, 1651.39, 1650.68, 1650.36, 1647.73, 1650.74, 1649.74, 0.00
889, 1657.38, 1654.86, 1657.99, 1657.18, 1657.02, 1654.65, 1657.61, 1656.53, 0.00
890, 1656.67, 1654.19, 1657.25, 1657.02, 1656.40, 1653.78, 1656.98, 1655.91, 0.00
891, 1645.18, 1642.94, 1645.98, 1645.49, 1644.93, 1642.38, 1645.22, 1644.62, 0.00
892, 1633.76, 1631.45, 1634.49, 1634.00, 1633.64, 1631.01, 1634.09, 1633.15, 0.00
893, 1631.86, 1629.40, 1632.39, 1631.65, 1631.48, 1628.64, 1632.01, 1630.89, 0.00
894, 1634.78, 1632.26, 1635.34, 1634.72, 1634.54, 1631.45, 1634.58, 1633.64, 0.00
895, 1632.88, 1630.51, 1633.40, 1633.09, 1632.77, 1629.71, 1632.91, 1632.01, 0.00
896, 1624.12, 1621.84, 1624.61, 1624.14, 1623.79, 1620.99, 1624.28, 1623.41, 0.00
897, 1615.23, 1612.83, 1615.81, 1615.54, 1614.94, 1612.28, 1615.16, 1614.62, 0.00
898, 1611.96, 1609.68, 1612.50, 1612.45, 1611.83, 1609.21, 1612.16, 1611.49, 0.00
899, 1612.37, 1610.04, 1612.86, 1612.63, 1611.90, 1609.50, 1612.34, 1611.67, 0.00
900, 1609.84, 1607.85, 1610.67, 1610.11, 1609.21, 1606.78, 1610.13, 1609.08, 0.00
901, 1603.11, 1600.68, 1603.76, 1603.13, 1602.35, 1600.14, 1603.11, 1602.08, 0.00
902, 1595.85, 1593.46, 1596.54, 1595.85, 1595.31, 1592.76, 1595.94, 1594.86, 0.00
903, 1592.52, 1590.17, 1593.10, 1592.20, 1591.89, 1589.43, 1592.36, 1591.67, 0.00
904, 1591.09, 1588.90, 1591.87, 1591.15, 1590.59, 1588.18, 1591.27, 1590.26, 0.00
905, 1588.11, 1585.59, 1588.65, 1587.82, 1587.62, 1585.03, 1588.16, 1587.13, 0.00
906, 1582.19, 1579.62, 1582.53, 1582.19, 1581.59, 1579.04, 1581.92, 1581.12, 0.00
907, 1081.29, 1078.81, 1081.67, 1081.42, 1081.00, 1078.14, 1081.33, 1080.33, 0.00
908, -845.59, -848.79, -846.53, -846.37, -845.07, -848.23, -845.50, -847.53, 0.00
909, -1257.40, -1260.53, -1258.56, -1257.87, -1256.68, -1259.88, -1257.26, -1259.12, 0.00
910, -2034.21, -2037.34, -2035.62, -2034.84, -2032.98, -2036.29, -2033.72, -2036.15, 0.00
911, -2705.43, -2708.72, -2707.44, -2706.59, -2704.00, -2707.47, -2705.01, -2707.89, 0.00
912, -2518.44, -2521.57, -2520.00, -2519.29, -2516.72, -2520.27, -2517.66, -2520.76, 0.00
913, -1962.80, -1965.95, -1964.25, -1963.40, -1961.50, -1964.90, -1962.26, -1964.94, 0.00
914, -1795.54, -1798.94, -1796.99, -1796.14, -1794.58, -1797.77, -1795.09, -1797.53, 0.00
915, -2067.89, -2071.43, -2069.35, -2068.85, -2066.80, -2069.88, -2067.49, -2070.06, 0.00
916, -2308.04, -2311.57, -2309.52, -2308.67, -2306.72, -2309.85, -2307.37, -2310.12, 0.00
917, -2252.23, -2255.80, -2253.93, -2252.83, -2250.89, -2254.15, -2251.69, -2254.22, 0.00
918, -2071.85, -2075.31, -2073.53, -2072.50, -2070.82, -2073.66, -2071.25, -2073.97, 0.00
919, -2009.40, -2012.89, -2011.17, -2010.23, -2008.24, -2011.34, -2008.93, -2011.75, 0.00
920, -2074.47, -2077.66, -2076.03, -2074.85, -2073.01, -2076.21, -2073.66, -2076.52, 0.00
921, -2132.85, -2136.25, -2134.52, -2133.72, -2131.71, -2134.59, -2132.60, -2135.15, 0.00
922, -2125.52, -2128.89, -2127.24, -2126.41, -2124.35, -2127.35, -2125.14, -2127.84, 0.00
923, -2094.11, -2097.67, -2095.86, -2095.14, -2093.15, -2096.26, -2093.96, -2096.62, 0.00
924, -2076.45, -2080.19, -2078.20, -2077.64, -2075.49, -2078.69, -2076.30, -2078.78, 0.00
925, -2065.14, -2068.77, -2067.11, -2066.15, -2064.03, -2067.25, -2064.92, -2067.60, 0.00
926, -2055.24, -2058.84, -2057.25, -2056.36, -2054.17, -2057.52, -2055.20, -2057.75, 0.00
927, -2061.97, -2065.81, -2064.03, -2063.07, -2061.10, -2064.25, -2061.93, -2064.38, 0.00
928, -2081.51, -2084.88, -2083.12, -2082.40, -2080.28, -2083.43, -2080.90, -2083.41, 0.00
929, -2080.57, -2083.58, -2082.06, -2081.35, -2079.23, -2082.60, -2080.16, -2082.51, 0.00
930, -2047.78, -2051.06, -2049.52, -2048.54, -2046.75, -2050.21, -2047.40, -2049.81, 0.00
931, -2018.00, -2021.07, -2019.70, -2018.72, -2016.78, -2020.17, -2017.29, -2019.86, 0.00
932, -2026.05, -2029.09, -2027.62, -2026.54, -2024.67, -2028.24, -2025.47, -2028.06, 0.00
933, -2055.60, -2058.77, -2057.05, -2056.20, -2054.10, -2057.72, -2054.97, -2057.70, 0.00
934, -2059.44, -2062.86, -2060.92, -2060.07, -2058.22, -2061.48, -2058.80, -2061.77, 0.00
935, -2025.96, -2029.40, -2027.53, -2026.65, -2024.73, -2028.00, -2025.27, -2028.13, 0.00
936, -1994.62, -1998.22, -1996.35, -1995.47, -1993.66, -1996.75, -1994.16, -1996.88, 0.00
937, -2000.44, -2003.86, -2001.98, -2001.35, -1999.52, -2002.36, -1999.77, -2002.72, 0.00
938, -2026.43, -2029.54, -2028.00, -2027.12, -2025.25, -2028.38, -2025.65, -2028.67, 0.00
939, -2030.25, -2033.56, -2031.82, -2030.88, -2029.05, -2032.20, -2029.78, -2032.44, 0.00
940, -2002.58, -2005.71, -2003.97, -2003.03, -2001.11, -2004.46, -2002.02, -2004.68, 0.00
941, -1976.36, -1979.38, -1977.55, -1976.79, -1974.78, -1978.26, -1975.58, -1978.44, 0.00
942, -1978.46, -1981.86, -1980.16, -1979.29, -1977.37, -1980.86, -1978.11, -1980.81, 0.00
943, -1996.86, -2000.12, -1998.36, -1997.58, -1995.72, -1999.05, -1996.32, -1999.03, 0.00
944, -1998.78, -2002.18, -2000.48, -1999.68, -1997.91, -2001.11, -1998.27, -2001.20, 0.00
945, -1977.75, -1980.92, -1979.49, -1978.69, -1976.90, -1980.01, -1977.10, -1980.19, 0.00
946, -1957.41, -1960.40, -1958.88, -1958.10, -1956.38, -1959.73, -1956.74, -1959.58, 0.00
947, -1957.28, -1960.61, -1959.06, -1958.21, -1956.11, -1959.71, -1956.74, -1959.67, 0.00
948, -1968.61, -1972.16, -1970.35, -1969.41, -1967.67, -1970.93, -1968.14, -1971.16, 0.00
949, -1968.96, -1972.27, -1970.84, -1969.86, -1967.89, -1971.02, -1968.27, -1971.27, 0.00
950, -1953.10, -1956.36, -1954.59, -1953.90, -1951.93, -1955.13, -1952.56, -1955.49, 0.00
951, -1937.11, -1940.91, -1939.01, -1938.03, -1936.17, -1939.48, -1936.67, -1939.77, 0.00
952, -1935.82, -1938.97, -1937.25, -1936.40, -1934.74, -1937.85, -1934.99, -1937.85, 0.00
953, -1941.74, -1945.16, -1943.64, -1942.43, -1940.76, -1944.00, -1941.00, -1944.04, 0.00
954, -1940.62, -1943.91, -1942.30, -1941.34, -1939.39, -1942.88, -1940.00, -1942.68, 0.00
955, -1928.46, -1931.75, -1930.18, -1929.36, -1927.48, -1930.92, -1927.93, -1930.68, 0.00
956, -1916.66, -1919.75, -1918.25, -1917.35, -1915.37, -1918.54, -1915.95, -1918.76, 0.00
957, -1913.67, -1916.73, -1915.28, -1914.34, -1912.59, -1915.68, -1912.97, -1915.81, 0.00
958, -1915.88, -1918.87, -1917.51, -1916.82, -1914.87, -1917.91, -1915.25, -1918.23, 0.00
959, -1913.64, -1916.75, -1915.25, -1914.34, -1912.37, -1915.77, -1912.93, -1915.77, 0.00
960, -1904.23, -1907.30, -1905.84, -1904.79, -1902.92, -1906.36, -1903.50, -1906.31, 0.00
961, -1894.87, -1897.98, -1896.23, -1895.49, -1893.80, -1896.70, -1894.31, -1897.15, 0.00
962, -1891.34, -1894.58, -1892.75, -1891.76, -1890.04, -1893.24, -1890.73, -1893.44, 0.00
963, -1891.18, -1894.31, -1892.63, -1891.56, -1889.88, -1893.21, -1890.44, -1893.13, 0.00
964, -1887.72, -1890.91, -1889.19, -1888.10, -1886.64, -1889.88, -1887.00, -1889.91, 0.00
965, -1880.23, -1883.54, -1881.84, -1880.79, -1879.22, -1882.24, -1879.31, -1882.60, 0.00
966, -1872.76, -1875.56, -1874.19, -1873.08, -1871.53, -1874.64, -1871.65, -1874.80, 0.00
967, -1868.52, -1871.42, -1870.28, -1869.07, -1867.11, -1870.57, -1867.87, -1870.51, 0.00
968, -1866.59, -1869.57, -1868.29, -1867.20, -1865.34, -1868.49, -1865.92, -1868.85, 0.00
969, -1862.82, -1865.79, -1864.45, -1863.44, -1861.68, -1864.72, -1862.19, -1865.21, 0.00
970, -1855.98, -1859.44, -1857.85, -1856.98, -1855.15, -1858.48, -1855.71, -1858.59, 0.00
971, -1354.65, -1358.09, -1356.53, -1355.66, -1354.18, -1357.31, -1354.27, -1356.95, 0.00
972, 573.10, 570.24, 572.67, 572.79, 572.96, 569.90, 573.43, 571.44, 0.00
973, 985.31, 982.98, 985.06, 985.11, 984.86, 981.82, 985.38, 983.79, 0.00
974, 1762.41, 1760.07, 1762.59, 1762.46, 1761.76, 1759.06, 1762.43, 1761.32, 0.00
975, 2434.42, 2432.43, 2435.09, 2434.73, 2433.32, 2430.64, 2434.26, 2433.61, 0.00
976, 2247.85, 2245.93, 2248.50, 2247.94, 2246.55, 2244.05, 2247.87, 2246.80, 0.00
977, 1692.83, 1690.71, 1693.39, 1692.97, 1692.18, 1689.46, 1693.19, 1691.58, 0.00
978, 1526.42, 1523.83, 1526.60, 1526.15, 1525.60, 1522.87, 1526.42, 1525.01, 0.00
979, 1799.07, 1796.92, 1799.20, 1798.98, 1798.42, 1795.58, 1799.25, 1798.09, 0.00
980, 2039.66, 2037.52, 2040.02, 2039.89, 2039.02, 2036.18, 2039.89, 2038.93, 0.00
981, 1984.83, 1982.44, 1984.92, 1984.97, 1984.07, 1981.17, 1984.88, 1983.76, 0.00
982, 1805.04, 1802.51, 1804.95, 1804.90, 1804.12, 1801.28, 1804.88, 1803.83, 0.00
983, 1743.44, 1741.04, 1743.32, 1743.12, 1742.41, 1739.66, 1743.19, 1741.92, 0.00
984, 1808.68, 1806.33, 1808.97, 1808.52, 1807.72, 1805.19, 1808.70, 1807.38, 0.00
985, 1867.91, 1865.52, 1868.18, 1867.87, 1867.09, 1864.49, 1867.94, 1866.66, 0.00
986, 1860.98, 1858.90, 1861.36, 1860.98, 1860.34, 1857.70, 1861.03, 1859.80, 0.00
987, 1830.32, 1828.04, 1830.47, 1830.21, 1829.58, 1826.85, 1830.36, 1829.15, 0.00
988, 1813.15, 1810.94, 1813.46, 1813.22, 1812.37, 1809.84, 1813.33, 1812.10, 0.00
989, 1802.20, 1800.19, 1802.56, 1802.15, 1801.73, 1799.05, 1802.49, 1801.24, 0.00
990, 1793.12, 1791.02, 1793.28, 1792.72, 1792.50, 1789.77, 1793.17, 1792.10, 0.00
991, 1800.43, 1798.24, 1800.57, 1800.01, 1799.63, 1796.97, 1800.39, 1799.29, 0.00
992, 1820.01, 1818.00, 1820.35, 1819.83, 1819.34, 1816.62, 1820.15, 1819.14, 0.00
993, 1820.12, 1817.82, 1820.28, 1819.95, 1819.12, 1816.48, 1820.04, 1818.90, 0.00
994, 1787.80, 1785.70, 1788.14, 1787.85, 1787.00, 1784.18, 1788.07, 1786.71, 0.00
995, 1758.34, 1756.38, 1758.61, 1758.59, 1757.61, 1754.86, 1758.57, 1757.25, 0.00
996, 1767.24, 1765.05, 1767.31, 1767.29, 1766.48, 1763.57, 1767.22, 1765.92, 0.00
997, 1797.26, 1795.18, 1797.48, 1797.53, 1796.68, 1793.70, 1797.46, 1796.25, 0.00
998, 1801.62, 1799.49, 1801.84, 1801.75, 1800.97, 1798.22, 1801.84, 1800.54, 0.00
999, 1769.01, 1766.91, 1768.87, 1769.05, 1768.34, 1765.34, 1769.03, 1767.87, 0.00
1000, 1738.52, 1736.10, 1738.50, 1738.45, 1737.60, 1734.67, 1738.61, 1737.16, 0.00
1001, 1744.75, 1742.47, 1744.62, 1744.46, 1743.93, 1741.04, 1744.60, 1743.50, 0.00
1002, 1770.93, 1768.56, 1770.82, 1770.84, 1770.12, 1767.31, 1770.77, 1769.65, 0.00
1003, 1775.18, 1772.78, 1775.20, 1775.04, 1774.48, 1771.58, 1775.13, 1773.99, 0.00
1004, 1748.24, 1745.78, 1748.17, 1748.13, 1747.48, 1744.60, 1748.02, 1747.08, 0.00
1005, 1722.36, 1719.88, 1722.38, 1722.36, 1721.51, 1718.80, 1722.16, 1721.08, 0.00
1006, 1725.71, 1723.16, 1725.60, 1725.51, 1724.71, 1721.80, 1725.33, 1724.39, 0.00
1007, 1744.40, 1742.30, 1744.26, 1744.44, 1743.68, 1740.89, 1744.37, 1743.26, 0.00
1008, 1747.15, 1745.02, 1747.35, 1747.01, 1746.27, 1743.66, 1747.12, 1745.92, 0.00
1009, 1726.52, 1724.19, 1726.49, 1726.25, 1725.85, 1722.76, 1726.38, 1725.13, 0.00
1010, 1706.31, 1704.34, 1706.47, 1706.18, 1705.82, 1703.00, 1706.35, 1705.24, 0.00
1011, 1706.73, 1704.77, 1707.11, 1706.96, 1706.26, 1703.47, 1707.05, 1705.71, 0.00
1012, 1718.74, 1716.88, 1718.94, 1719.01, 1718.16, 1715.30, 1718.96, 1717.73, 0.00
1013, 1719.65, 1717.62, 1719.74, 1719.94, 1719.05, 1716.23, 1719.94, 1718.69, 0.00
1014, 1704.57, 1702.35, 1704.21, 1704.68, 1703.72, 1701.01, 1704.48, 1703.47, 0.00
1015, 1689.39, 1687.38, 1689.32, 1689.59, 1688.45, 1685.90, 1689.41, 1688.20, 0.00
1016, 1688.32, 1686.06, 1687.94, 1688.12, 1687.36, 1684.83, 1688.29, 1687.02, 0.00
1017, 1695.04, 1692.72, 1694.66, 1694.80, 1694.17, 1691.40, 1694.87, 1693.55, 0.00
1018, 1694.40, 1692.12, 1694.13, 1694.06, 1693.35, 1690.48, 1694.19, 1692.90, 0.00
1019, 1682.66, 1680.52, 1682.53, 1682.57, 1681.59, 1678.97, 1682.73, 1681.48, 0.00
1020, 1671.06, 1669.12, 1670.97, 1670.99, 1670.14, 1667.55, 1671.06, 1669.79, 0.00
1021, 1668.89, 1666.77, 1668.87, 1668.94, 1668.18, 1665.16, 1668.92, 1667.78, 0.00
1022, 1671.66, 1669.72, 1671.53, 1671.66, 1670.77, 1668.24, 1671.60, 1670.61, 0.00
1023, 1669.79, 1667.64, 1669.61, 1669.76, 1668.78, 1666.30, 1669.61, 1668.67, 0.00
1024, 1660.91, 1658.95, 1660.78, 1660.98, 1660.13, 1657.38, 1660.87, 1659.71, 0.00
1025, 1652.08, 1649.96, 1652.02, 1652.22, 1651.37, 1648.58, 1652.04, 1650.81, 0.00
1026, 1649.00, 1646.79, 1649.13, 1649.07, 1648.22, 1645.49, 1649.07, 1647.66, 0.00
1027, 1649.20, 1647.12, 1649.13, 1649.18, 1648.24, 1645.65, 1649.16, 1647.79, 0.00
1028, 1646.61, 1644.51, 1646.72, 1646.74, 1646.14, 1642.96, 1646.79, 1645.29, 0.00
1029, 1639.50, 1637.44, 1639.59, 1639.59, 1638.99, 1635.90, 1639.50, 1638.29, 0.00
1030, 1632.35, 1630.34, 1632.44, 1632.33, 1631.57, 1628.95, 1632.73, 1631.36, 0.00
1031, 1628.99, 1626.96, 1628.88, 1629.02, 1628.26, 1625.58, 1629.11, 1627.77, 0.00
1032, 1627.61, 1625.40, 1627.36, 1627.45, 1626.89, 1624.03, 1627.81, 1626.34, 0.00
1033, 1624.46, 1622.18, 1624.41, 1624.35, 1623.47, 1620.84, 1624.57, 1623.05, 0.00
1034, 1618.60, 1616.39, 1618.33, 1618.27, 1617.71, 1614.94, 1618.20, 1617.13, 0.00
1035, 1117.68, 1115.24, 1117.07, 1117.65, 1117.03, 1114.01, 1117.54, 1115.91, 0.00
1036, -809.85, -812.42, -811.03, -810.16, -809.31, -812.73, -809.33, -811.97, 0.00
1037, -1221.43, -1224.14, -1222.95, -1221.81, -1220.90, -1224.16, -1220.96, -1223.78, 0.00
1038, -1998.25, -2000.88, -2000.21, -1998.80, -1997.08, -2000.55, -1997.33, -2000.68, 0.00
1039, -2669.71, -2672.75, -2671.99, -2670.56, -2668.13, -2671.73, -2668.71, -2672.71, 0.00
1040, -2482.25, -2485.60, -2484.80, -2483.41, -2481.07, -2484.55, -2481.40, -2485.22, 0.00
1041, -1927.08, -1930.12, -1929.00, -1928.04, -1926.21, -1929.45, -1926.41, -1929.65, 0.00
1042, -1759.60, -1762.88, -1761.72, -1760.71, -1759.17, -1762.46, -1759.37, -1762.23, 0.00
1043, -2032.06, -2035.46, -2034.23, -2032.89, -2031.46, -2034.68, -2031.64, -2034.79, 0.00
1044, -2272.52, -2275.68, -2274.54, -2273.28, -2271.72, -2274.96, -2271.65, -2274.87, 0.00
1045, -2216.58, -2219.66, -2218.75, -2217.72, -2216.04, -2219.39, -2215.91, -2219.15, 0.00
1046, -2036.42, -2039.51, -2038.57, -2037.32, -2035.42, -2039.04, -2035.66, -2038.90, 0.00
1047, -1974.15, -1977.10, -1976.07, -1975.04, -1973.26, -1976.77, -1973.30, -1976.56, 0.00
1048, -2039.15, -2041.97, -2040.89, -2039.80, -2038.14, -2041.52, -2038.30, -2041.72, 0.00
1049, -2097.53, -2100.80, -2099.88, -2098.47, -2096.77, -2100.26, -2097.13, -2100.39, 0.00
1050, -2090.13, -2093.37, -2092.57, -2090.96, -2089.33, -2092.79, -2089.57, -2092.73, 0.00
1051, -2059.27, -2062.24, -2061.46, -2059.91, -2058.28, -2061.48, -2058.73, -2061.75, 0.00
1052, -2041.63, -2044.63, -2043.96, -2042.44, -2040.67, -2044.16, -2040.96, -2044.02, 0.00
1053, -2030.05, -2033.25, -2032.60, -2031.19, -2029.31, -2032.94, -2029.54, -2032.69, 0.00
1054, -2020.53, -2023.46, -2022.77, -2021.38, -2019.41, -2023.03, -2019.88, -2023.10, 0.00
1055, -2027.37, -2030.43, -2029.38, -2028.02, -2026.27, -2029.78, -2026.52, -2029.76, 0.00
1056, -2046.50, -2049.61, -2048.63, -2047.33, -2045.47, -2049.16, -2045.63, -2048.92, 0.00
1057, -2045.56, -2048.76, -2047.73, -2046.44, -2044.74, -2048.02, -2044.87, -2047.98, 0.00
1058, -2013.29, -2015.86, -2015.28, -2013.89, -2012.30, -2015.41, -2012.33, -2015.46, 0.00
1059, -1983.43, -1985.91, -1985.39, -1983.94, -1982.33, -1985.64, -1982.58, -1985.51, 0.00
1060, -1991.43, -1994.11, -1993.40, -1992.23, -1990.58, -1993.89, -1990.74, -1993.69, 0.00
1061, -2020.87, -2023.70, -2023.30, -2021.87, -2020.35, -2023.73, -2020.55, -2023.75, 0.00
1062, -2024.89, -2027.79, -2027.08, -2025.38, -2023.99, -2027.50, -2024.22, -2027.59, 0.00
1063, -1991.58, -1994.58, -1993.62, -1992.26, -1990.71, -1994.31, -1991.00, -1994.04, 0.00
1064, -1960.43, -1963.73, -1962.64, -1961.05, -1959.98, -1963.18, -1959.91, -1962.91, 0.00
1065, -1966.57, -1969.32, -1968.32, -1966.77, -1965.72, -1968.96, -1965.77, -1968.63, 0.00
1066, -1992.21, -1995.41, -1994.33, -1992.64, -1991.45, -1994.71, -1991.65, -1994.54, 0.00
1067, -1996.03, -1999.18, -1998.11, -1996.57, -1995.12, -1998.47, -1995.43, -1998.20, 0.00
1068, -1968.20, -1971.51, -1970.35, -1969.10, -1967.49, -1971.02, -1967.74, -1970.71, 0.00
1069, -1941.70, -1945.09, -1944.20, -1942.79, -1941.23, -1944.65, -1941.56, -1944.49, 0.00
1070, -1944.20, -1947.60, -1946.61, -1945.38, -1943.71, -1947.15, -1943.91, -1947.08, 0.00
1071, -1962.80, -1965.72, -1965.01, -1963.69, -1962.17, -1965.81, -1962.51, -1965.34, 0.00
1072, -1965.17, -1968.05, -1967.40, -1965.95, -1964.27, -1967.76, -1964.72, -1967.67, 0.00
1073, -1943.91, -1947.13, -1946.12, -1945.00, -1943.17, -1946.81, -1943.60, -1946.50, 0.00
1074, -1923.64, -1926.54, -1925.67, -1924.22, -1922.59, -1926.27, -1923.05, -1926.09, 0.00
1075, -1923.86, -1926.41, -1925.65, -1924.33, -1922.67, -1926.43, -1923.08, -1926.41, 0.00
1076, -1935.08, -1938.03, -1937.09, -1936.02, -1934.21, -1937.76, -1934.57, -1937.83, 0.00
1077, -1935.35, -1938.54, -1937.58, -1936.20, -1934.68, -1938.21, -1934.92, -1938.14, 0.00
1078, -1919.57, -1922.43, -1921.74, -1920.33, -1918.85, -1922.25, -1919.17, -1922.27, 0.00
1079, -1904.28, -1906.94, -1906.20, -1904.68, -1903.38, -1906.63, -1903.74, -1906.45, 0.00
1080, -1902.31, -1905.15, -1904.61, -1903.09, -1901.73, -1905.06, -1902.20, -1904.84, 0.00
1081, -1908.48, -1911.41, -1910.72, -1909.29, -1907.99, -1911.28, -1908.32, -1911.14, 0.00
1082, -1907.43, -1910.22, -1909.64, -1908.15, -1906.67, -1910.22, -1907.01, -1909.82, 0.00
1083, -1895.36, -1898.18, -1897.80, -1896.05, -1894.47, -1898.18, -1894.69, -1898.09, 0.00
1084, -1883.31, -1886.33, -1885.84, -1884.32, -1882.49, -1886.31, -1882.82, -1886.24, 0.00
1085, -1880.43, -1883.60, -1882.98, -1881.35, -1879.67, -1883.49, -1879.94, -1883.20, 0.00
1086, -1883.07, -1885.75, -1885.35, -1883.67, -1882.02, -1885.66, -1882.33, -1885.28, 0.00
1087, -1880.81, -1883.38, -1882.93, -1881.30, -1879.78, -1883.38, -1880.12, -1883.13, 0.00
1088, -1871.38, -1874.06, -1873.46, -1872.14, -1870.82, -1874.10, -1870.82, -1873.70, 0.00
1089, -1862.10, -1864.81, -1864.36, -1862.82, -1861.45, -1864.63, -1861.52, -1864.40, 0.00
1090, -1858.32, -1861.30, -1860.76, -1859.37, -1857.68, -1861.10, -1857.77, -1860.74, 0.00
1091, -1858.03, -1861.12, -1860.40, -1859.13, -1857.52, -1860.74, -1857.81, -1860.67, 0.00
1092, -1854.99, -1857.81, -1857.25, -1855.91, -1854.46, -1857.83, -1854.79, -1857.41, 0.00
1093, -1847.64, -1850.48, -1849.72, -1848.42, -1846.95, -1850.37, -1847.17, -1849.99, 0.00
1094, -1839.97, -1842.95, -1842.12, -1840.69, -1839.19, -1842.50, -1839.53, -1842.32, 0.00
1095, -1836.13, -1839.08, -1838.23, -1836.80, -1835.28, -1838.63, -1835.50, -1838.43, 0.00
1096, -1834.34, -1837.34, -1836.42, -1834.83, -1833.47, -1836.82, -1833.78, -1836.82, 0.00
1097, -1830.52, -1833.38, -1832.78, -1831.21, -1829.65, -1832.95, -1830.00, -1832.84, 0.00
1098, -1824.04, -1826.85, -1826.25, -1824.75, -1823.30, -1826.54, -1823.72, -1826.36, 0.00
1099, -1322.71, -1325.48, -1324.59, -1323.27, -1322.24, -1325.37, -1322.31, -1324.88, 0.00
1100, 605.04, 602.94, 604.12, 604.91, 604.57, 601.60, 605.24, 603.70, 0.00
1101, 1017.18, 1014.97, 1016.53, 1017.09, 1016.62, 1013.72, 1017.47, 1015.64, 0.00
1102, 1794.67, 1792.52, 1793.93, 1794.58, 1793.48, 1790.69, 1794.64, 1793.26, 0.00
1103, 2466.54, 2464.66, 2466.34, 2466.60, 2465.13, 2462.20, 2466.27, 2465.44, 0.00
1104, 2279.83, 2277.91, 2279.56, 2279.79, 2278.47, 2275.76, 2279.36, 2278.74, 0.00
1105, 1724.86, 1723.12, 1724.35, 1724.73, 1723.72, 1720.93, 1724.55, 1723.57, 0.00
1106, 1558.25, 1556.26, 1557.67, 1558.30, 1557.09, 1554.52, 1557.98, 1556.89, 0.00
1107, 1831.03, 1829.11, 1830.79, 1831.10, 1829.96, 1827.23, 1831.10, 1829.91, 0.00
1108, 2071.65, 2069.93, 2071.40, 2071.94, 2070.35, 2067.65, 2071.69, 2070.62, 0.00
1109, 2016.48, 2014.65, 2016.22, 2016.71, 2015.30, 2012.39, 2016.22, 2015.30, 0.00
1110, 1836.75, 1834.70, 1836.13, 1836.58, 1835.39, 1832.60, 1836.42, 1835.35, 0.00
1111, 1774.71, 1772.92, 1774.26, 1774.66, 1773.61, 1770.82, 1774.71, 1773.68, 0.00
1112, 1840.08, 1838.43, 1839.68, 1840.22, 1838.90, 1836.40, 1839.75, 1839.21, 0.00
1113, 1899.52, 1897.33, 1899.09, 1899.23, 1898.15, 1895.63, 1899.09, 1898.29, 0.00
1114, 1892.34, 1890.58, 1892.07, 1892.63, 1891.40, 1888.59, 1892.21, 1891.23, 0.00
1115, 1861.63, 1859.91, 1861.48, 1862.06, 1860.83, 1857.85, 1861.41, 1860.60, 0.00
1116, 1844.38, 1842.77, 1844.33, 1844.87, 1843.57, 1840.53, 1844.38, 1843.33, 0.00
1117, 1833.76, 1831.75, 1833.02, 1833.69, 1832.66, 1829.80, 1833.54, 1832.40, 0.00
1118, 1824.33, 1822.47, 1823.99, 1824.30, 1823.19, 1820.48, 1824.24, 1822.96, 0.00
1119, 1831.66, 1829.78, 1831.12, 1831.46, 1830.47, 1827.66, 1831.75, 1830.29, 0.00
1120, 1851.44, 1849.61, 1850.90, 1850.99, 1850.03, 1847.28, 1851.33, 1850.10, 0.00
1121, 1851.08, 1848.94, 1850.55, 1850.48, 1849.79, 1846.79, 1850.77, 1849.76, 0.00
1122, 1818.81, 1816.82, 1818.43, 1818.63, 1817.71, 1814.56, 1818.56, 1817.29, 0.00
1123, 1789.28, 1787.42, 1789.19, 1789.48, 1788.41, 1785.26, 1789.12, 1787.76, 0.00
1124, 1798.09, 1796.12, 1797.57, 1798.11, 1797.04, 1793.95, 1797.93, 1796.54, 0.00
1125, 1828.13, 1826.09, 1827.95, 1828.28, 1827.12, 1824.15, 1828.24, 1826.90, 0.00
1126, 1832.49, 1830.56, 1832.13, 1832.82, 1831.28, 1828.55, 1832.49, 1831.19, 0.00
1127, 1799.58, 1797.88, 1799.27, 1799.67, 1798.44, 1795.45, 1799.56, 1798.11, 0.00
1128, 1769.01, 1767.13, 1768.49, 1769.01, 1767.82, 1764.71, 1768.92, 1767.58, 0.00
1129, 1775.00, 1773.23, 1774.55, 1775.26, 1773.72, 1770.93, 1775.02, 1773.81, 0.00
1130, 1801.28, 1799.45, 1800.68, 1801.60, 1800.16, 1797.17, 1801.22, 1799.78, 0.00
1131, 1805.55, 1803.58, 1805.26, 1805.75, 1804.52, 1801.60, 1805.53, 1804.10, 0.00
1132, 1778.48, 1776.58, 1778.06, 1778.62, 1777.46, 1774.57, 1778.37, 1777.19, 0.00
1133, 1752.60, 1750.45, 1752.15, 1752.31, 1751.48, 1748.64, 1752.64, 1751.44, 0.00
1134, 1755.80, 1753.72, 1755.28, 1755.39, 1754.61, 1751.80, 1755.48, 1754.34, 0.00
1135, 1774.82, 1772.56, 1774.33, 1774.26, 1773.54, 1770.48, 1774.28, 1773.16, 0.00
1136, 1777.37, 1775.22, 1776.78, 1776.99, 1776.05, 1773.28, 1776.74, 1775.76, 0.00
1137, 1756.76, 1754.79, 1756.02, 1756.33, 1755.35, 1752.53, 1756.29, 1755.10, 0.00
1138, 1736.48, 1734.58, 1735.88, 1736.37, 1735.39, 1732.46, 1736.28, 1735.01, 0.00
1139, 1737.09, 1735.19, 1736.44, 1737.00, 1735.86, 1733.11, 1736.78, 1735.55, 0.00
1140, 1748.80, 1747.28, 1748.42, 1748.76, 1747.82, 1744.91, 1748.67, 1747.75, 0.00
1141, 1749.83, 1747.97, 1749.27, 1749.56, 1748.35, 1745.58, 1749.60, 1748.44, 0.00
1142, 1734.29, 1732.37, 1733.62, 1734.09, 1733.11, 1730.25, 1734.00, 1733.00, 0.00
1143, 1718.92, 1717.26, 1718.71, 1719.09, 1718.00, 1714.92, 1718.94, 1717.84, 0.00
1144, 1717.82, 1716.03, 1717.31, 1717.95, 1716.88, 1713.71, 1717.51, 1716.41, 0.00
1145, 1724.44, 1722.65, 1724.01, 1724.50, 1723.52, 1720.53, 1724.33, 1723.12, 0.00
1146, 1723.45, 1722.09, 1723.21, 1723.77, 1722.69, 1719.79, 1723.70, 1722.45, 0.00
1147, 1712.19, 1710.49, 1711.88, 1712.32, 1711.34, 1708.25, 1711.99, 1710.85, 0.00
1148, 1700.57, 1698.87, 1700.25, 1700.54, 1699.65, 1696.68, 1700.25, 1699.34, 0.00
1149, 1698.33, 1696.72, 1698.02, 1698.08, 1697.26, 1694.46, 1698.24, 1697.19, 0.00
1150, 1701.15, 1699.51, 1700.68, 1700.99, 1700.23, 1697.12, 1700.97, 1699.83, 0.00
1151, 1698.89, 1697.50, 1698.82, 1699.13, 1698.35, 1694.84, 1699.02, 1697.68, 0.00
1152, 1690.42, 1688.83, 1689.97, 1690.33, 1689.43, 1686.15, 1690.22, 1689.17, 0.00
1153, 1681.43, 1679.67, 1680.92, 1681.54, 1680.31, 1677.34, 1681.19, 1680.02, 0.00
1154, 1678.19, 1676.54, 1677.72, 1678.17, 1677.23, 1674.32, 1677.72, 1676.89, 0.00
1155, 1678.41, 1676.60, 1677.77, 1678.39, 1677.30, 1674.19, 1678.06, 1676.94, 0.00
1156, 1675.78, 1673.72, 1675.11, 1675.42, 1674.66, 1671.75, 1675.40, 1674.15, 0.00
1157, 1668.65, 1666.84, 1668.16, 1668.38, 1667.48, 1664.76, 1668.20, 1667.10, 0.00
1158, 1661.61, 1659.80, 1660.94, 1661.23, 1660.44, 1657.56, 1661.27, 1659.95, 0.00
1159, 1658.10, 1656.26, 1657.49, 1657.83, 1657.05, 1654.03, 1657.83, 1656.44, 0.00
1160, 1656.53, 1654.70, 1656.02, 1656.38, 1655.44, 1652.55, 1656.31, 1655.06, 0.00
1161, 1653.09, 1651.37, 1652.58, 1652.98, 1652.04, 1649.38, 1652.71, 1651.73, 0.00
1162, 1647.10, 1645.36, 1646.79, 1646.97, 1646.18, 1643.30, 1646.94, 1645.92, 0.00
1163, 1146.20, 1144.32, 1145.50, 1145.88, 1145.48, 1142.29, 1146.24, 1144.74, 0.00
1164, -780.88, -783.45, -782.91, -781.89, -780.99, -784.37, -780.72, -783.16, 0.00
1165, -1192.64, -1195.33, -1194.50, -1193.78, -1192.69, -1195.93, -1192.51, -1195.06, 0.00
1166, -1969.41, -1972.16, -1972.09, -1970.31, -1968.74, -1972.45, -1969.19, -1972.03, 0.00
1167, -2641.10, -2643.94, -2644.19, -2642.07, -2640.19, -2643.92, -2640.61, -2643.88, 0.00
1168, -2454.09, -2456.86, -2456.88, -2455.05, -2453.30, -2456.86, -2453.60, -2456.81, 0.00
1169, -1898.87, -1901.40, -1901.17, -1899.43, -1898.15, -1901.69, -1898.31, -1901.17, 0.00
1170, -1731.68, -1734.25, -1734.20, -1732.37, -1731.08, -1734.74, -1731.32, -1734.09, 0.00
1171, -2003.90, -2006.61, -2006.49, -2005.00, -2003.43, -2007.14, -2003.57, -2006.47, 0.00
1172, -2244.00, -2246.93, -2246.93, -2245.19, -2243.38, -2247.13, -2243.53, -2246.82, 0.00
1173, -2188.50, -2191.16, -2190.98, -2189.53, -2187.79, -2191.34, -2188.12, -2191.19, 0.00
1174, -2008.17, -2010.92, -2010.87, -2009.22, -2007.75, -2011.08, -2007.99, -2010.85, 0.00
1175, -1946.03, -1948.69, -1948.47, -1946.95, -1945.56, -1948.78, -1945.63, -1948.51, 0.00
1176, -2010.99, -2013.62, -2013.24, -2011.79, -2010.72, -2013.76, -2010.65, -2013.51, 0.00
1177, -2069.66, -2072.32, -2072.23, -2070.69, -2069.37, -2072.52, -2069.44, -2072.34, 0.00
1178, -2062.37, -2065.23, -2064.90, -2063.49, -2062.02, -2065.41, -2062.19, -2064.90, 0.00
1179, -2031.42, -2034.01, -2034.03, -2032.15, -2030.48, -2034.30, -2030.90, -2033.94, 0.00
1180, -2013.67, -2016.44, -2016.51, -2014.65, -2013.09, -2016.55, -2013.15, -2016.31, 0.00
1181, -2002.65, -2005.15, -2005.13, -2003.50, -2001.62, -2005.29, -2001.91, -2005.09, 0.00
1182, -1992.84, -1995.56, -1995.36, -1993.62, -1991.99, -1995.56, -1992.39, -1995.30, 0.00
1183, -1999.65, -2002.29, -2002.13, -2000.53, -1999.21, -2002.45, -1999.25, -2002.16, 0.00
1184, -2018.90, -2021.54, -2021.29, -2019.93, -2018.38, -2021.83, -2018.63, -2021.63, 0.00
1185, -2018.14, -2020.80, -2020.71, -2019.32, -2017.94, -2021.11, -2017.98, -2020.78, 0.00
1186, -1985.39, -1988.05, -1987.96, -1986.53, -1985.28, -1988.48, -1985.15, -1988.21, 0.00
1187, -1955.51, -1958.37, -1958.46, -1956.76, -1955.29, -1958.91, -1955.42, -1958.30, 0.00
1188, -1963.76, -1966.42, -1966.44, -1964.76, -1963.62, -1967.02, -1963.40, -1966.48, 0.00
1189, -1993.46, -1995.94, -1995.94, -1994.38, -1993.13, -1996.66, -1993.19, -1996.21, 0.00
1190, -1997.60, -2000.10, -2000.10, -1998.67, -1997.11, -2000.75, -1997.53, -2000.12, 0.00
1191, -1964.43, -1966.84, -1966.71, -1965.32, -1963.98, -1967.45, -1963.89, -1966.77, 0.00
1192, -1933.47, -1935.88, -1935.71, -1934.50, -1932.98, -1936.40, -1932.93, -1936.02, 0.00
1193, -1939.24, -1941.49, -1941.63, -1940.38, -1938.72, -1942.12, -1938.92, -1941.67, 0.00
1194, -1965.12, -1967.53, -1967.58, -1965.93, -1964.52, -1967.80, -1964.41, -1967.31, 0.00
1195, -1968.74, -1971.22, -1971.22, -1969.79, -1968.52, -1971.80, -1968.43, -1971.18, 0.00
1196, -1941.14, -1943.62, -1943.66, -1942.17, -1940.62, -1944.31, -1940.78, -1943.62, 0.00
1197, -1914.76, -1917.33, -1917.65, -1915.88, -1914.45, -1917.89, -1914.61, -1917.40, 0.00
1198, -1917.60, -1920.26, -1920.19, -1918.72, -1917.31, -1920.57, -1917.33, -1920.39, 0.00
1199, -1936.53, -1938.72, -1938.86, -1937.29, -1935.68, -1939.13, -1935.66, -1938.88, 0.00
1200, -1938.54, -1940.94, -1940.94, -1939.53, -1938.03, -1941.58, -1937.94, -1941.00, 0.00
1201, -1917.15, -1920.06, -1919.57, -1918.25, -1916.91, -1920.22, -1917.09, -1920.24, 0.00
1202, -1897.15, -1899.43, -1899.36, -1897.77, -1896.43, -1899.81, -1896.68, -1899.50, 0.00
1203, -1896.88, -1899.74, -1899.29, -1898.02, -1896.70, -1900.05, -1896.77, -1899.41, 0.00
1204, -1908.12, -1911.36, -1910.94, -1909.73, -1908.10, -1911.48, -1908.30, -1911.07, 0.00
1205, -1908.73, -1911.70, -1911.57, -1910.09, -1908.57, -1911.81, -1908.77, -1911.72, 0.00
1206, -1893.28, -1895.79, -1895.65, -1894.27, -1892.81, -1896.30, -1892.95, -1895.67, 0.00
1207, -1877.59, -1880.09, -1879.92, -1878.69, -1877.14, -1880.77, -1877.21, -1880.03, 0.00
1208, -1875.94, -1878.37, -1878.17, -1876.85, -1875.62, -1879.11, -1875.51, -1878.64, 0.00
1209, -1881.95, -1884.61, -1884.50, -1883.07, -1881.70, -1885.21, -1881.88, -1884.72, 0.00
1210, -1880.72, -1883.42, -1883.47, -1881.86, -1880.70, -1884.05, -1880.88, -1883.60, 0.00
1211, -1868.74, -1871.53, -1871.65, -1870.19, -1868.61, -1872.00, -1868.81, -1871.69, 0.00
1212, -1856.98, -1859.73, -1859.80, -1858.23, -1856.51, -1859.98, -1856.98, -1859.71, 0.00
1213, -1854.28, -1856.78, -1856.83, -1855.46, -1854.12, -1857.34, -1854.01, -1856.92, 0.00
1214, -1856.65, -1859.28, -1859.24, -1857.72, -1856.40, -1859.87, -1856.67, -1859.24, 0.00
1215, -1854.46, -1857.18, -1857.01, -1855.44, -1853.99, -1857.52, -1854.01, -1857.05, 0.00
1216, -1845.20, -1847.91, -1847.93, -1846.25, -1844.96, -1848.29, -1844.69, -1847.55, 0.00
1217, -1835.73, -1838.56, -1838.14, -1836.96, -1835.75, -1839.01, -1835.84, -1838.34, 0.00
1218, -1832.28, -1835.21, -1835.03, -1833.42, -1832.13, -1835.59, -1832.22, -1834.97, 0.00
1219, -1831.99, -1834.81, -1834.74, -1833.31, -1831.95, -1835.41, -1831.93, -1834.79, 0.00
1220, -1829.00, -1831.64, -1831.46, -1830.16, -1828.89, -1832.31, -1828.84, -1831.84, 0.00
1221, -1821.71, -1824.30, -1824.06, -1822.56, -1821.51, -1824.82, -1821.42, -1824.42, 0.00
1222, -1813.93, -1816.73, -1816.75, -1815.01, -1813.69, -1817.42, -1813.87, -1816.66, 0.00
1223, -1809.95, -1812.70, -1812.79, -1811.32, -1809.62, -1813.55, -1809.64, -1812.73, 0.00
1224, -1808.26, -1811.03, -1810.58, -1809.33, -1807.83, -1811.50, -1808.12, -1810.78, 0.00
1225, -1804.63, -1807.14, -1806.98, -1805.71, -1804.21, -1807.70, -1804.57, -1806.96, 0.00
1226, -1798.04, -1800.79, -1800.77, -1799.25, -1797.93, -1801.51, -1798.13, -1800.95, 0.00
1227, -1296.89, -1299.40, -1299.13, -1297.90, -1297.18, -1300.13, -1296.94, -1299.75, 0.00
1228, 630.83, 628.98, 629.51, 630.21, 629.85, 626.97, 630.52, 628.89, 0.00
1229, 1042.73, 1041.23, 1041.70, 1042.40, 1041.59, 1038.73, 1042.46, 1041.10, 0.00
1230, 1820.17, 1818.38, 1819.16, 1819.59, 1818.74, 1815.59, 1819.59, 1818.40, 0.00
1231, 2491.95, 2490.41, 2491.59, 2491.62, 2490.27, 2487.28, 2491.46, 2490.65, 0.00
1232, 2305.14, 2303.50, 2304.60, 2304.51, 2303.37, 2300.62, 2304.55, 2303.93, 0.00
1233, 1750.19, 1748.53, 1749.31, 1749.72, 1748.58, 1745.89, 1749.63, 1748.53, 0.00
1234, 1583.38, 1581.56, 1582.53, 1582.91, 1581.61, 1578.97, 1582.86, 1581.83, 0.00
1235, 1856.29, 1854.52, 1855.55, 1855.84, 1854.50, 1851.69, 1855.75, 1854.86, 0.00
1236, 2096.97, 2095.41, 2096.39, 2096.44, 2095.03, 2092.35, 2096.44, 2095.59, 0.00
1237, 2041.65, 2040.04, 2041.18, 2041.38, 2039.84, 2037.16, 2041.07, 2040.11, 0.00
1238, 1861.81, 1859.98, 1861.25, 1861.56, 1860.29, 1857.23, 1861.25, 1860.47, 0.00
1239, 1800.16, 1798.00, 1799.16, 1799.52, 1798.38, 1795.38, 1799.56, 1798.33, 0.00
1240, 1865.10, 1863.40, 1864.31, 1864.78, 1863.58, 1860.78, 1864.69, 1863.69, 0.00
1241, 1924.28, 1922.56, 1923.70, 1924.08, 1922.52, 1919.84, 1923.72, 1923.01, 0.00
1242, 1917.42, 1915.61, 1916.97, 1917.09, 1915.66, 1912.66, 1916.84, 1915.86, 0.00
1243, 1886.53, 1885.03, 1886.13, 1886.24, 1885.17, 1882.06, 1886.35, 1885.06, 0.00
1244, 1869.41, 1867.76, 1868.96, 1869.07, 1867.62, 1865.07, 1869.03, 1867.89, 0.00
1245, 1858.53, 1856.83, 1858.44, 1857.85, 1856.89, 1854.23, 1858.06, 1856.96, 0.00
1246, 1849.09, 1847.51, 1848.73, 1848.65, 1847.53, 1844.73, 1848.67, 1847.59, 0.00
1247, 1856.25, 1854.79, 1855.82, 1855.91, 1854.68, 1851.93, 1855.84, 1854.88, 0.00
1248, 1875.62, 1874.26, 1875.51, 1875.40, 1874.24, 1871.53, 1875.18, 1874.42, 0.00
1249, 1875.38, 1873.99, 1875.07, 1875.31, 1874.04, 1871.22, 1874.95, 1874.08, 0.00
1250, 1843.08, 1841.98, 1842.72, 1842.81, 1841.74, 1838.83, 1842.79, 1841.78, 0.00
1251, 1813.78, 1812.37, 1813.22, 1813.35, 1812.28, 1809.44, 1813.40, 1812.41, 0.00
1252, 1822.56, 1820.97, 1821.78, 1821.96, 1821.02, 1817.98, 1821.98, 1820.95, 0.00
1253, 1852.51, 1850.93, 1851.77, 1852.00, 1851.08, 1848.04, 1852.00, 1851.15, 0.00
1254, 1856.96, 1855.15, 1856.11, 1856.42, 1855.44, 1852.29, 1856.51, 1855.60, 0.00
1255, 1824.01, 1822.14, 1823.39, 1823.48, 1822.54, 1819.43, 1823.34, 1822.63, 0.00
1256, 1793.24, 1791.40, 1792.56, 1792.70, 1791.87, 1788.83, 1792.50, 1791.85, 0.00
1257, 1799.16, 1797.55, 1798.71, 1798.78, 1797.84, 1794.91, 1798.87, 1797.73, 0.00
1258, 1825.51, 1824.04, 1825.00, 1824.97, 1824.13, 1821.18, 1825.02, 1823.86, 0.00
1259, 1829.76, 1828.39, 1829.09, 1829.36, 1828.15, 1825.40, 1829.13, 1828.06, 0.00
1260, 1802.31, 1801.08, 1801.89, 1802.06, 1801.04, 1798.18, 1802.04, 1800.75, 0.00
1261, 1776.38, 1775.09, 1775.80, 1776.27, 1775.09, 1772.02, 1776.14, 1775.06, 0.00
1262, 1779.51, 1778.26, 1778.91, 1779.24, 1778.26, 1775.31, 1779.06, 1778.19, 0.00
1263, 1798.38, 1796.99, 1797.93, 1797.95, 1797.08, 1794.26, 1797.91, 1797.21, 0.00
1264, 1801.01, 1799.61, 1800.63, 1800.43, 1799.54, 1796.59, 1800.66, 1799.74, 0.00
1265, 1780.14, 1778.77, 1779.58, 1779.82, 1778.89, 1775.96, 1779.78, 1778.57, 0.00
1266, 1760.31, 1758.86, 1759.55, 1759.84, 1758.75, 1755.73, 1759.78, 1758.66, 0.00
1267, 1760.83, 1759.17, 1760.07, 1760.22, 1759.28, 1756.33, 1760.38, 1759.17, 0.00
1268, 1772.81, 1771.08, 1771.73, 1772.16, 1771.06, 1768.07, 1772.20, 1771.00, 0.00
1269, 1773.52, 1771.80, 1772.63, 1772.90, 1771.89, 1768.67, 1772.74, 1771.73, 0.00
1270, 1758.10, 1756.24, 1757.52, 1757.61, 1756.51, 1753.45, 1757.61, 1756.33, 0.00
1271, 1742.65, 1740.95, 1742.27, 1742.32, 1741.18, 1738.32, 1742.21, 1741.38, 0.00
1272, 1741.45, 1739.79, 1741.11, 1740.93, 1740.04, 1737.00, 1740.84, 1739.93, 0.00
1273, 1747.77, 1746.41, 1747.53, 1747.50, 1746.57, 1743.41, 1747.55, 1746.54, 0.00
1274, 1747.06, 1745.54, 1746.32, 1746.92, 1745.54, 1742.63, 1746.72, 1745.69, 0.00
1275, 1735.66, 1734.09, 1735.01, 1735.26, 1734.36, 1731.10, 1735.05, 1734.07, 0.00
1276, 1724.24, 1722.51, 1723.25, 1723.74, 1722.60, 1719.54, 1723.63, 1722.54, 0.00
1277, 1722.02, 1720.12, 1721.04, 1721.58, 1720.12, 1717.51, 1721.15, 1720.10, 0.00
1278, 1724.57, 1722.60, 1723.79, 1724.06, 1723.19, 1720.15, 1723.77, 1722.78, 0.00
1279, 1722.56, 1720.64, 1721.64, 1722.27, 1721.15, 1718.04, 1722.02, 1720.91, 0.00
1280, 1713.40, 1712.23, 1712.66, 1713.22, 1712.10, 1709.06, 1712.79, 1712.14, 0.00
1281, 1704.43, 1703.18, 1703.78, 1704.03, 1703.18, 1699.98, 1703.90, 1703.14, 0.00
1282, 1701.21, 1699.85, 1700.39, 1700.95, 1699.94, 1696.54, 1700.88, 1699.92, 0.00
1283, 1701.28, 1699.92, 1700.36, 1701.21, 1699.89, 1696.92, 1700.83, 1700.01, 0.00
1284, 1698.82, 1697.35, 1698.06, 1698.26, 1697.17, 1694.55, 1698.17, 1697.55, 0.00
1285, 1691.62, 1689.90, 1690.78, 1691.13, 1690.31, 1687.58, 1691.24, 1690.08, 0.00
1286, 1684.52, 1682.77, 1683.53, 1684.11, 1683.02, 1680.11, 1684.16, 1682.84, 0.00
1287, 1680.74, 1679.33, 1680.11, 1680.43, 1679.49, 1676.49, 1680.40, 1679.42, 0.00
1288, 1679.26, 1677.70, 1678.55, 1678.77, 1677.74, 1674.88, 1678.59, 1677.79, 0.00
1289, 1675.91, 1674.46, 1675.13, 1675.69, 1674.53, 1671.51, 1675.46, 1674.53, 0.00
1290, 1669.88, 1668.36, 1669.14, 1669.72, 1668.47, 1665.67, 1669.50, 1668.58, 0.00
1291, 1169.06, 1167.23, 1167.95, 1168.57, 1167.59, 1164.62, 1168.26, 1167.30, 0.00
1292, -758.57, -760.61, -760.63, -759.20, -758.69, -762.17, -758.73, -760.74, 0.00
1293, -1170.02, -1172.19, -1172.26, -1170.99, -1170.36, -1173.69, -1170.14, -1172.59, 0.00
1294, -1946.90, -1949.16, -1949.41, -1948.11, -1946.61, -1950.55, -1946.97, -1949.72, 0.00
1295, -2618.46, -2621.12, -2621.46, -2619.96, -2618.04, -2621.93, -2618.55, -2621.52, 0.00
1296, -2431.33, -2433.75, -2434.28, -2432.70, -2430.95, -2434.57, -2431.24, -2434.17, 0.00
1297, -1875.89, -1878.26, -1878.69, -1877.41, -1875.89, -1879.40, -1875.85, -1878.55, 0.00
1298, -1708.79, -1711.38, -1711.32, -1709.95, -1709.10, -1712.46, -1708.97, -1711.52, 0.00
1299, -1981.57, -1984.01, -1984.25, -1982.85, -1981.37, -1985.08, -1981.41, -1984.19, 0.00
1300, -2221.99, -2224.36, -2224.76, -2223.08, -2221.45, -2225.16, -2221.81, -2224.49, 0.00
1301, -2166.33, -2168.77, -2168.95, -2167.45, -2165.86, -2169.55, -2165.91, -2168.97, 0.00
1302, -1986.11, -1988.66, -1988.86, -1987.29, -1985.75, -1989.60, -1985.97, -1988.72, 0.00
1303, -1923.93, -1926.34, -1926.65, -1925.00, -1923.30, -1927.21, -1923.77, -1926.56, 0.00
1304, -1988.79, -1991.07, -1991.52, -1989.98, -1988.55, -1992.10, -1988.34, -1991.52, 0.00
1305, -2047.62, -2049.95, -2050.50, -2048.72, -2047.20, -2050.97, -2047.37, -2050.24, 0.00
1306, -2040.38, -2042.75, -2043.13, -2041.56, -2040.13, -2043.82, -2040.07, -2043.06, 0.00
1307, -2009.27, -2011.52, -2011.88, -2010.32, -2009.13, -2012.68, -2009.09, -2011.79, 0.00
1308, -1991.81, -1994.13, -1994.33, -1992.68, -1991.47, -1995.00, -1991.56, -1994.24, 0.00
1309, -1980.65, -1983.00, -1983.25, -1981.62, -1980.43, -1983.85, -1980.27, -1983.14, 0.00
1310, -1970.78, -1973.39, -1973.41, -1971.89, -1970.84, -1974.11, -1970.55, -1973.39, 0.00
1311, -1977.86, -1980.30, -1980.36, -1978.71, -1977.70, -1981.21, -1977.59, -1980.48, 0.00
1312, -1997.17, -1999.72, -1999.85, -1998.09, -1996.95, -2000.44, -1996.95, -1999.79, 0.00
1313, -1996.23, -1998.96, -1999.25, -1997.33, -1996.26, -1999.79, -1996.35, -1998.98, 0.00
1314, -1963.82, -1966.22, -1966.37, -1964.81, -1963.78, -1967.20, -1963.76, -1966.33, 0.00
1315, -1933.81, -1936.35, -1936.44, -1934.88, -1933.87, -1937.47, -1933.96, -1936.69, 0.00
1316, -1942.21, -1944.67, -1944.94, -1943.22, -1942.19, -1945.65, -1942.14, -1944.58, 0.00
1317, -1972.07, -1974.40, -1974.62, -1973.08, -1971.94, -1975.42, -1971.74, -1974.71, 0.00
1318, -1976.23, -1978.38, -1978.60, -1977.32, -1975.92, -1979.67, -1975.85, -1978.82, 0.00
1319, -1942.79, -1945.47, -1945.52, -1944.15, -1942.68, -1946.59, -1942.99, -1945.47, 0.00
1320, -1911.90, -1914.27, -1914.74, -1912.97, -1911.66, -1915.57, -1911.88, -1914.67, 0.00
1321, -1917.53, -1920.01, -1920.37, -1918.79, -1917.56, -1921.27, -1917.42, -1920.42, 0.00
1322, -1943.46, -1945.99, -1946.14, -1944.67, -1943.35, -1946.90, -1943.26, -1946.21, 0.00
1323, -1947.40, -1949.88, -1950.26, -1948.54, -1947.02, -1950.88, -1947.13, -1949.99, 0.00
1324, -1919.77, -1922.18, -1922.47, -1920.82, -1919.70, -1923.28, -1919.55, -1922.34, 0.00
1325, -1893.62, -1896.17, -1896.19, -1894.82, -1893.59, -1897.26, -1893.77, -1896.30, 0.00
1326, -1896.25, -1898.94, -1899.05, -1897.35, -1896.23, -1899.99, -1896.63, -1898.87, 0.00
1327, -1914.72, -1917.38, -1917.49, -1915.83, -1914.63, -1918.36, -1915.12, -1917.40, 0.00
1328, -1917.20, -1919.72, -1919.84, -1918.09, -1917.06, -1920.69, -1917.22, -1919.79, 0.00
1329, -1896.21, -1898.51, -1899.00, -1896.93, -1895.92, -1899.32, -1896.05, -1898.76, 0.00
1330, -1875.71, -1878.15, -1878.49, -1876.76, -1875.27, -1879.02, -1875.51, -1878.17, 0.00
1331, -1876.12, -1878.49, -1878.69, -1877.17, -1875.62, -1879.33, -1875.80, -1878.51, 0.00
1332, -1887.56, -1889.86, -1890.40, -1888.59, -1887.22, -1891.11, -1887.31, -1889.93, 0.00
1333, -1887.98, -1890.11, -1890.73, -1889.06, -1887.63, -1891.69, -1887.81, -1890.49, 0.00
1334, -1872.27, -1874.69, -1874.91, -1873.19, -1871.98, -1875.78, -1872.20, -1874.77, 0.00
1335, -1856.63, -1859.17, -1859.37, -1857.65, -1856.36, -1860.20, -1856.58, -1859.17, 0.00
1336, -1855.19, -1857.54, -1857.72, -1856.09, -1854.81, -1858.50, -1855.04, -1857.52, 0.00
1337, -1861.54, -1863.71, -1863.98, -1862.37, -1860.98, -1864.69, -1861.39, -1863.84, 0.00
1338, -1860.29, -1862.84, -1862.93, -1861.25, -1859.84, -1863.69, -1860.20, -1862.86, 0.00
1339, -1848.40, -1850.66, -1850.95, -1849.18, -1848.06, -1851.71, -1848.33, -1850.68, 0.00
1340, -1836.69, -1838.65, -1839.21, -1837.51, -1836.37, -1839.77, -1836.44, -1838.72, 0.00
1341, -1833.80, -1835.86, -1836.51, -1834.59, -1833.69, -1836.89, -1833.60, -1836.35, 0.00
1342, -1836.11, -1838.18, -1838.74, -1837.02, -1836.29, -1839.48, -1835.99, -1838.79, 0.00
1343, -1834.18, -1836.24, -1836.73, -1835.19, -1834.12, -1837.38, -1833.96, -1836.53, 0.00
1344, -1824.77, -1827.17, -1827.37, -1825.82, -1824.64, -1828.24, -1824.53, -1827.21, 0.00
1345, -1815.50, -1817.67, -1817.91, -1816.53, -1815.36, -1818.87, -1815.45, -1818.05, 0.00
1346, -1812.01, -1814.51, -1814.69, -1813.08, -1811.77, -1815.74, -1811.94, -1814.69, 0.00
1347, -1811.79, -1814.51, -1814.31, -1812.91, -1811.81, -1815.32, -1811.74, -1814.27, 0.00
1348, -1808.64, -1811.32, -1811.27, -1809.78, -1808.68, -1811.97, -1808.70, -1811.32, 0.00
1349, -1801.13, -1803.76, -1803.90, -1802.38, -1801.22, -1804.84, -1801.33, -1803.92, 0.00
1350, -1793.82, -1796.36, -1796.32, -1794.80, -1793.82, -1797.50, -1793.66, -1796.28, 0.00
1351, -1789.91, -1792.32, -1792.61, -1791.05, -1789.91, -1793.68, -1789.95, -1792.21, 0.00
1352, -1788.03, -1790.31, -1790.78, -1789.17, -1788.12, -1791.83, -1788.21, -1790.51, 0.00
1353, -1784.43, -1786.66, -1787.16, -1785.39, -1784.50, -1788.30, -1784.63, -1786.82, 0.00
1354, -1778.26, -1780.67, -1780.94, -1779.24, -1778.28, -1781.88, -1778.42, -1780.56, 0.00
1355, -1277.00, -1279.23, -1279.26, -1277.76, -1277.04, -1280.55, -1277.11, -1279.26, 0.00
1356, 650.70, 648.83, 649.50, 650.21, 649.68, 646.55, 650.19, 649.14, 0.00
1357, 1062.85, 1060.97, 1061.60, 1062.56, 1061.57, 1058.42, 1062.09, 1061.42, 0.00
1358, 1839.88, 1838.27, 1839.17, 1839.97, 1838.27, 1835.41, 1839.30, 1838.70, 0.00
1359, 2511.71, 2510.61, 2511.40, 2511.69, 2509.83, 2507.17, 2510.97, 2510.70, 0.00
1360, 2324.96, 2323.82, 2324.60, 2324.98, 2323.17, 2320.31, 2324.31, 2323.66, 0.00
1361, 1769.81, 1768.49, 1769.45, 1769.79, 1768.20, 1765.34, 1769.14, 1768.43, 0.00
1362, 1603.18, 1601.66, 1602.44, 1602.87, 1601.70, 1598.73, 1602.58, 1601.59, 0.00
1363, 1875.80, 1874.57, 1875.22, 1875.78, 1874.37, 1871.20, 1875.33, 1874.42, 0.00
1364, 2116.46, 2115.06, 2116.02, 2116.29, 2114.72, 2111.73, 2116.08, 2115.48, 0.00
1365, 2060.99, 2059.85, 2060.41, 2061.19, 2059.56, 2056.56, 2060.76, 2060.16, 0.00
1366, 1881.03, 1879.92, 1880.27, 1881.17, 1879.85, 1876.90, 1880.61, 1879.74, 0.00
1367, 1819.07, 1818.09, 1818.54, 1819.14, 1817.71, 1814.96, 1818.78, 1817.84, 0.00
1368, 1884.56, 1883.27, 1884.03, 1884.43, 1883.16, 1880.21, 1884.14, 1883.13, 0.00
1369, 1943.53, 1942.30, 1943.35, 1943.73, 1941.90, 1939.26, 1942.95, 1942.37, 0.00
1370, 1936.64, 1935.68, 1936.42, 1936.76, 1934.88, 1932.06, 1935.97, 1935.21, 0.00
1371, 1905.91, 1904.61, 1905.33, 1905.66, 1904.12, 1901.19, 1905.17, 1904.52, 0.00
1372, 1888.39, 1887.43, 1888.39, 1888.70, 1886.80, 1884.01, 1888.34, 1887.52, 0.00
1373, 1877.43, 1876.61, 1877.19, 1877.61, 1876.14, 1873.03, 1877.37, 1876.21, 0.00
1374, 1868.34, 1866.95, 1867.58, 1868.07, 1866.84, 1863.58, 1867.58, 1866.68, 0.00
1375, 1875.53, 1874.15, 1874.73, 1875.36, 1874.04, 1870.66, 1875.11, 1873.88, 0.00
1376, 1895.16, 1893.77, 1894.44, 1894.96, 1893.57, 1890.11, 1894.62, 1893.66, 0.00
1377, 1894.94, 1893.26, 1894.22, 1894.56, 1893.35, 1890.00, 1894.02, 1893.19, 0.00
1378, 1862.39, 1861.01, 1861.74, 1862.15, 1860.69, 1857.36, 1861.74, 1860.87, 0.00
1379, 1832.84, 1831.46, 1832.33, 1832.62, 1831.37, 1827.99, 1832.22, 1831.32, 0.00
1380, 1841.52, 1840.04, 1840.89, 1841.29, 1840.11, 1836.84, 1840.87, 1840.13, 0.00
1381, 1871.53, 1870.06, 1870.77, 1871.35, 1869.95, 1866.82, 1870.84, 1870.04, 0.00
1382, 1875.80, 1874.64, 1875.11, 1875.71, 1874.17, 1870.95, 1875.07, 1874.44, 0.00
1383, 1842.97, 1841.49, 1842.16, 1842.79, 1841.49, 1838.14, 1842.25, 1841.67, 0.00
1384, 1812.17, 1810.87, 1811.45, 1811.94, 1810.47, 1807.47, 1811.45, 1810.83, 0.00
1385, 1818.14, 1816.75, 1817.67, 1818.14, 1816.41, 1813.44, 1817.51, 1816.84, 0.00
1386, 1844.04, 1842.68, 1843.88, 1844.29, 1842.74, 1839.75, 1843.75, 1843.21, 0.00
1387, 1848.38, 1846.99, 1848.09, 1848.62, 1846.75, 1843.82, 1847.97, 1847.33, 0.00
1388, 1821.33, 1819.86, 1820.80, 1821.38, 1819.50, 1816.79, 1820.57, 1819.99, 0.00
1389, 1795.40, 1794.06, 1794.87, 1795.40, 1793.64, 1790.69, 1794.60, 1794.11, 0.00
1390, 1798.44, 1797.04, 1797.84, 1798.53, 1796.77, 1793.55, 1797.84, 1796.97, 0.00
1391, 1817.49, 1816.06, 1816.91, 1817.13, 1815.83, 1812.66, 1816.73, 1815.97, 0.00
1392, 1819.79, 1818.67, 1819.32, 1819.72, 1818.29, 1815.16, 1818.92, 1818.43, 0.00
