%OpenBCI Raw EEG Data
%
%Sample Rate = 250.0 Hz
%First Column = SampleIndex
%Other Columns = EEG data in microvolts
40531, 65.38, -60.57, 0.00, 0.00, 0.00, 0.00, 0.00, 0.00, 0.00
40532, 65.22, -50.34, 0.00, 0.00, 0.00, 0.00, 0.00, 0.00, 0.00
40533, 68.37, -51.01, 0.00, 0.00, 0.00, 0.00, 0.00, 0.00, 0.00
40532, 65.22, -50.34, 0.00, 0.00, 0.00, 0.00, 0.00, 0.00, 0.00
40533, 68.37, -51.01, 0.00, 0.00, 0.00, 0.00, 0.00, 0.00, 0.00
1, 2195.25, 1235.09, 0.00, 0.00, 0.00, 0.00, 0.00, 0.00, 0.00
2, 1894.85, 1068.66, 0.00, 0.00, 0.00, 0.00, 0.00, 0.00, 0.00
3, 2665.98, 1594.28, 0.00, 0.00, 0.00, 0.00, 0.00, 0.00, 0.00
4, 3258.64, 1968.83, 0.00, 0.00, 0.00, 0.00, 0.00, 0.00, 0.00
5, 3038.16, 1803.72, 0.00, 0.00, 0.00, 0.00, 0.00, 0.00, 0.00
6, 2515.17, 1489.59, 0.00, 0.00, 0.00, 0.00, 0.00, 0.00, 0.00
7, 2389.74, 1409.77, 0.00, 0.00, 0.00, 0.00, 0.00, 0.00, 0.00
8, 2660.39, 1573.94, 0.00, 0.00, 0.00, 0.00, 0.00, 0.00, 0.00
9, 2867.62, 1705.59, 0.00, 0.00, 0.00, 0.00, 0.00, 0.00, 0.00
10, 2792.45, 1652.91, 0.00, 0.00, 0.00, 0.00, 0.00, 0.00, 0.00
11, 2618.28, 1567.44, 0.00, 0.00, 0.00, 0.00, 0.00, 0.00, 0.00
12, 2574.79, 1533.98, 0.00, 0.00, 0.00, 0.00, 0.00, 0.00, 0.00
13, 2646.89, 1564.00, 0.00, 0.00, 0.00, 0.00, 0.00, 0.00, 0.00
14, 2692.56, 1595.53, 0.00, 0.00, 0.00, 0.00, 0.00, 0.00, 0.00
15, 2676.44, 1589.39, 0.00, 0.00, 0.00, 0.00, 0.00, 0.00, 0.00
16, 2639.90, 1592.32, 0.00, 0.00, 0.00, 0.00, 0.00, 0.00, 0.00
17, 2627.60, 1573.85, 0.00, 0.00, 0.00, 0.00, 0.00, 0.00, 0.00
18, 2622.71, 1552.60, 0.00, 0.00, 0.00, 0.00, 0.00, 0.00, 0.00
19, 2604.18, 1544.91, 0.00, 0.00, 0.00, 0.00, 0.00, 0.00, 0.00
20, 2609.50, 1548.15, 0.00, 0.00, 0.00, 0.00, 0.00, 0.00, 0.00
21, 2627.87, 1577.05, 0.00, 0.00, 0.00, 0.00, 0.00, 0.00, 0.00
22, 2627.74, 1576.16, 0.00, 0.00, 0.00, 0.00, 0.00, 0.00, 0.00
23, 2600.31, 1545.56, 0.00, 0.00, 0.00, 0.00, 0.00, 0.00, 0.00
24, 2563.39, 1522.65, 0.00, 0.00, 0.00, 0.00, 0.00, 0.00, 0.00
25, 2566.96, 1524.70, 0.00, 0.00, 0.00, 0.00, 0.00, 0.00, 0.00
26, 2590.34, 1554.18, 0.00, 0.00, 0.00, 0.00, 0.00, 0.00, 0.00
27, 2592.00, 1552.26, 0.00, 0.00, 0.00, 0.00, 0.00, 0.00, 0.00
28, 2565.06, 1524.48, 0.00, 0.00, 0.00, 0.00, 0.00, 0.00, 0.00
29, 2530.28, 1505.73, 0.00, 0.00, 0.00, 0.00, 0.00, 0.00, 0.00
30, 2534.71, 1505.61, 0.00, 0.00, 0.00, 0.00, 0.00, 0.00, 0.00
31, 2555.39, 1529.93, 0.00, 0.00, 0.00, 0.00, 0.00, 0.00, 0.00
32, 2554.49, 1529.91, 0.00, 0.00, 0.00, 0.00, 0.00, 0.00, 0.00
33, 2530.51, 1501.57, 0.00, 0.00, 0.00, 0.00, 0.00, 0.00, 0.00
34, 2502.86, 1487.49, 0.00, 0.00, 0.00, 0.00, 0.00, 0.00, 0.00
35, 2504.89, 1487.69, 0.00, 0.00, 0.00, 0.00, 0.00, 0.00, 0.00
36, 2518.50, 1504.25, 0.00, 0.00, 0.00, 0.00, 0.00, 0.00, 0.00
37, 2519.76, 1504.05, 0.00, 0.00, 0.00, 0.00, 0.00, 0.00, 0.00
38, 2498.48, 1483.55, 0.00, 0.00, 0.00, 0.00, 0.00, 0.00, 0.00
39, 2476.22, 1475.97, 0.00, 0.00, 0.00, 0.00, 0.00, 0.00, 0.00
40, 2480.15, 1477.85, 0.00, 0.00, 0.00, 0.00, 0.00, 0.00, 0.00
41, 2489.36, 1489.77, 0.00, 0.00, 0.00, 0.00, 0.00, 0.00, 0.00
42, 2481.47, 1484.69, 0.00, 0.00, 0.00, 0.00, 0.00, 0.00, 0.00
43, 2466.20, 1472.09, 0.00, 0.00, 0.00, 0.00, 0.00, 0.00, 0.00
44, 2448.21, 1464.44, 0.00, 0.00, 0.00, 0.00, 0.00, 0.00, 0.00
45, 2445.77, 1457.67, 0.00, 0.00, 0.00, 0.00, 0.00, 0.00, 0.00
46, 2448.81, 1463.64, 0.00, 0.00, 0.00, 0.00, 0.00, 0.00, 0.00
47, 2445.48, 1459.39, 0.00, 0.00, 0.00, 0.00, 0.00, 0.00, 0.00
48, 2438.80, 1450.52, 0.00, 0.00, 0.00, 0.00, 0.00, 0.00, 0.00
49, 2424.36, 1446.14, 0.00, 0.00, 0.00, 0.00, 0.00, 0.00, 0.00
50, 2419.60, 1443.90, 0.00, 0.00, 0.00, 0.00, 0.00, 0.00, 0.00
51, 2422.06, 1447.48, 0.00, 0.00, 0.00, 0.00, 0.00, 0.00, 0.00
52, 2416.92, 1445.69, 0.00, 0.00, 0.00, 0.00, 0.00, 0.00, 0.00
53, 2408.71, 1435.79, 0.00, 0.00, 0.00, 0.00, 0.00, 0.00, 0.00
54, 2393.04, 1427.25, 0.00, 0.00, 0.00, 0.00, 0.00, 0.00, 0.00
55, 2388.31, 1422.42, 0.00, 0.00, 0.00, 0.00, 0.00, 0.00, 0.00
56, 2386.29, 1426.40, 0.00, 0.00, 0.00, 0.00, 0.00, 0.00, 0.00
57, 2378.78, 1420.25, 0.00, 0.00, 0.00, 0.00, 0.00, 0.00, 0.00
58, 2371.03, 1412.41, 0.00, 0.00, 0.00, 0.00, 0.00, 0.00, 0.00
59, 2359.54, 1407.40, 0.00, 0.00, 0.00, 0.00, 0.00, 0.00, 0.00
60, 2353.79, 1402.26, 0.00, 0.00, 0.00, 0.00, 0.00, 0.00, 0.00
61, 2351.74, 1404.56, 0.00, 0.00, 0.00, 0.00, 0.00, 0.00, 0.00
62, 2345.93, 1398.50, 0.00, 0.00, 0.00, 0.00, 0.00, 0.00, 0.00
63, 2338.31, 1395.67, 0.00, 0.00, 0.00, 0.00, 0.00, 0.00, 0.00
64, 2332.43, 1391.53, 0.00, 0.00, 0.00, 0.00, 0.00, 0.00, 0.00
65, 2324.34, 1381.99, 0.00, 0.00, 0.00, 0.00, 0.00, 0.00, 0.00
66, 2321.43, 1384.04, 0.00, 0.00, 0.00, 0.00, 0.00, 0.00, 0.00
67, 2313.81, 1379.17, 0.00, 0.00, 0.00, 0.00, 0.00, 0.00, 0.00
68, 2306.97, 1380.11, 0.00, 0.00, 0.00, 0.00, 0.00, 0.00, 0.00
69, 2301.58, 1376.26, 0.00, 0.00, 0.00, 0.00, 0.00, 0.00, 0.00
70, 2297.92, 1371.17, 0.00, 0.00, 0.00, 0.00, 0.00, 0.00, 0.00
71, 2294.32, 1372.87, 0.00, 0.00, 0.00, 0.00, 0.00, 0.00, 0.00
72, 2286.58, 1363.99, 0.00, 0.00, 0.00, 0.00, 0.00, 0.00, 0.00
73, 2282.47, 1363.50, 0.00, 0.00, 0.00, 0.00, 0.00, 0.00, 0.00
74, 2274.51, 1357.96, 0.00, 0.00, 0.00, 0.00, 0.00, 0.00, 0.00
75, 2268.68, 1352.84, 0.00, 0.00, 0.00, 0.00, 0.00, 0.00, 0.00
76, 2264.79, 1358.02, 0.00, 0.00, 0.00, 0.00, 0.00, 0.00, 0.00
77, 2260.81, 1349.26, 0.00, 0.00, 0.00, 0.00, 0.00, 0.00, 0.00
78, 2252.16, 1347.45, 0.00, 0.00, 0.00, 0.00, 0.00, 0.00, 0.00
79, 2249.03, 1343.50, 0.00, 0.00, 0.00, 0.00, 0.00, 0.00, 0.00
80, 2242.57, 1333.01, 0.00, 0.00, 0.00, 0.00, 0.00, 0.00, 0.00
81, 2234.95, 1334.98, 0.00, 0.00, 0.00, 0.00, 0.00, 0.00, 0.00
82, 2228.54, 1324.36, 0.00, 0.00, 0.00, 0.00, 0.00, 0.00, 0.00
83, 2223.35, 1323.33, 0.00, 0.00, 0.00, 0.00, 0.00, 0.00, 0.00
84, 2218.90, 1323.36, 0.00, 0.00, 0.00, 0.00, 0.00, 0.00, 0.00
85, 2213.65, 1318.22, 0.00, 0.00, 0.00, 0.00, 0.00, 0.00, 0.00
86, 2208.87, 1323.58, 0.00, 0.00, 0.00, 0.00, 0.00, 0.00, 0.00
87, 2203.61, 1312.45, 0.00, 0.00, 0.00, 0.00, 0.00, 0.00, 0.00
88, 2200.04, 1315.24, 0.00, 0.00, 0.00, 0.00, 0.00, 0.00, 0.00
89, 2192.62, 1310.95, 0.00, 0.00, 0.00, 0.00, 0.00, 0.00, 0.00
90, 2186.74, 1301.88, 0.00, 0.00, 0.00, 0.00, 0.00, 0.00, 0.00
91, 2180.79, 1306.21, 0.00, 0.00, 0.00, 0.00, 0.00, 0.00, 0.00
92, 2179.63, 1296.42, 0.00, 0.00, 0.00, 0.00, 0.00, 0.00, 0.00
93, 2170.89, 1298.01, 0.00, 0.00, 0.00, 0.00, 0.00, 0.00, 0.00
94, 2163.58, 1293.16, 0.00, 0.00, 0.00, 0.00, 0.00, 0.00, 0.00
95, 2157.35, 1285.78, 0.00, 0.00, 0.00, 0.00, 0.00, 0.00, 0.00
96, 2152.09, 1292.11, 0.00, 0.00, 0.00, 0.00, 0.00, 0.00, 0.00
97, 2147.53, 1278.65, 0.00, 0.00, 0.00, 0.00, 0.00, 0.00, 0.00
98, 2139.46, 1280.29, 0.00, 0.00, 0.00, 0.00, 0.00, 0.00, 0.00
99, 2131.86, 1273.07, 0.00, 0.00, 0.00, 0.00, 0.00, 0.00, 0.00
100, 2128.36, 1266.36, 0.00, 0.00, 0.00, 0.00, 0.00, 0.00, 0.00
101, 2120.08, 1274.92, 0.00, 0.00, 0.00, 0.00, 0.00, 0.00, 0.00
102, 2117.83, 1259.39, 0.00, 0.00, 0.00, 0.00, 0.00, 0.00, 0.00
103, 2113.33, 1263.97, 0.00, 0.00, 0.00, 0.00, 0.00, 0.00, 0.00
104, 2109.45, 1265.56, 0.00, 0.00, 0.00, 0.00, 0.00, 0.00, 0.00
105, 2106.81, 1257.40, 0.00, 0.00, 0.00, 0.00, 0.00, 0.00, 0.00
106, 2097.24, 1262.92, 0.00, 0.00, 0.00, 0.00, 0.00, 0.00, 0.00
107, 2091.83, 1245.86, 0.00, 0.00, 0.00, 0.00, 0.00, 0.00, 0.00
108, 2083.94, 1248.93, 0.00, 0.00, 0.00, 0.00, 0.00, 0.00, 0.00
109, 2077.62, 1245.28, 0.00, 0.00, 0.00, 0.00, 0.00, 0.00, 0.00
110, 2073.59, 1233.95, 0.00, 0.00, 0.00, 0.00, 0.00, 0.00, 0.00
111, 2061.23, 1241.59, 0.00, 0.00, 0.00, 0.00, 0.00, 0.00, 0.00
112, 2060.72, 1228.97, 0.00, 0.00, 0.00, 0.00, 0.00, 0.00, 0.00
113, 2052.40, 1230.75, 0.00, 0.00, 0.00, 0.00, 0.00, 0.00, 0.00
114, 2046.46, 1228.00, 0.00, 0.00, 0.00, 0.00, 0.00, 0.00, 0.00
115, 2045.09, 1218.57, 0.00, 0.00, 0.00, 0.00, 0.00, 0.00, 0.00
116, 2035.37, 1222.39, 0.00, 0.00, 0.00, 0.00, 0.00, 0.00, 0.00
117, 2034.79, 1212.18, 0.00, 0.00, 0.00, 0.00, 0.00, 0.00, 0.00
118, 2025.83, 1217.66, 0.00, 0.00, 0.00, 0.00, 0.00, 0.00, 0.00
119, 2021.96, 1214.06, 0.00, 0.00, 0.00, 0.00, 0.00, 0.00, 0.00
120, 2019.10, 1197.85, 0.00, 0.00, 0.00, 0.00, 0.00, 0.00, 0.00
121, 2010.41, 1202.81, 0.00, 0.00, 0.00, 0.00, 0.00, 0.00, 0.00
122, 2007.79, 1194.61, 0.00, 0.00, 0.00, 0.00, 0.00, 0.00, 0.00
123, 2001.42, 1196.11, 0.00, 0.00, 0.00, 0.00, 0.00, 0.00, 0.00
124, 1996.90, 1194.41, 0.00, 0.00, 0.00, 0.00, 0.00, 0.00, 0.00
125, 1993.64, 1184.71, 0.00, 0.00, 0.00, 0.00, 0.00, 0.00, 0.00
126, 1982.93, 1192.60, 0.00, 0.00, 0.00, 0.00, 0.00, 0.00, 0.00
127, 1979.36, 1181.16, 0.00, 0.00, 0.00, 0.00, 0.00, 0.00, 0.00
128, 1970.82, 1179.14, 0.00, 0.00, 0.00, 0.00, 0.00, 0.00, 0.00
129, 1965.41, 1173.49, 0.00, 0.00, 0.00, 0.00, 0.00, 0.00, 0.00
130, 1964.07, 1163.99, 0.00, 0.00, 0.00, 0.00, 0.00, 0.00, 0.00
131, 1956.85, 1171.14, 0.00, 0.00, 0.00, 0.00, 0.00, 0.00, 0.00
132, 1956.02, 1160.59, 0.00, 0.00, 0.00, 0.00, 0.00, 0.00, 0.00
133, 1949.03, 1161.53, 0.00, 0.00, 0.00, 0.00, 0.00, 0.00, 0.00
134, 1942.79, 1162.85, 0.00, 0.00, 0.00, 0.00, 0.00, 0.00, 0.00
135, 1940.38, 1151.58, 0.00, 0.00, 0.00, 0.00, 0.00, 0.00, 0.00
136, 1928.96, 1157.89, 0.00, 0.00, 0.00, 0.00, 0.00, 0.00, 0.00
137, 1927.46, 1147.02, 0.00, 0.00, 0.00, 0.00, 0.00, 0.00, 0.00
138, 1920.91, 1145.57, 0.00, 0.00, 0.00, 0.00, 0.00, 0.00, 0.00
139, 1913.69, 1146.35, 0.00, 0.00, 0.00, 0.00, 0.00, 0.00, 0.00
140, 1910.58, 1137.97, 0.00, 0.00, 0.00, 0.00, 0.00, 0.00, 0.00
141, 1896.86, 1141.37, 0.00, 0.00, 0.00, 0.00, 0.00, 0.00, 0.00
142, 1893.44, 1125.57, 0.00, 0.00, 0.00, 0.00, 0.00, 0.00, 0.00
143, 1885.75, 1121.10, 0.00, 0.00, 0.00, 0.00, 0.00, 0.00, 0.00
144, 1875.74, 1121.52, 0.00, 0.00, 0.00, 0.00, 0.00, 0.00, 0.00
145, 1868.56, 1109.92, 0.00, 0.00, 0.00, 0.00, 0.00, 0.00, 0.00
146, 1860.02, 1115.22, 0.00, 0.00, 0.00, 0.00, 0.00, 0.00, 0.00
147, 1861.74, 1110.81, 0.00, 0.00, 0.00, 0.00, 0.00, 0.00, 0.00
148, 1852.91, 1105.54, 0.00, 0.00, 0.00, 0.00, 0.00, 0.00, 0.00
149, 1844.51, 1099.08, 0.00, 0.00, 0.00, 0.00, 0.00, 0.00, 0.00
150, 1845.74, 1091.57, 0.00, 0.00, 0.00, 0.00, 0.00, 0.00, 0.00
151, 1839.39, 1093.02, 0.00, 0.00, 0.00, 0.00, 0.00, 0.00, 0.00
152, 1832.26, 1085.96, 0.00, 0.00, 0.00, 0.00, 0.00, 0.00, 0.00
153, 1826.36, 1088.40, 0.00, 0.00, 0.00, 0.00, 0.00, 0.00, 0.00
154, 1818.83, 1087.37, 0.00, 0.00, 0.00, 0.00, 0.00, 0.00, 0.00
155, 1818.78, 1084.13, 0.00, 0.00, 0.00, 0.00, 0.00, 0.00, 0.00
156, 1813.58, 1085.80, 0.00, 0.00, 0.00, 0.00, 0.00, 0.00, 0.00
157, 1805.80, 1072.75, 0.00, 0.00, 0.00, 0.00, 0.00, 0.00, 0.00
158, 1800.72, 1071.52, 0.00, 0.00, 0.00, 0.00, 0.00, 0.00, 0.00
159, 1793.57, 1069.51, 0.00, 0.00, 0.00, 0.00, 0.00, 0.00, 0.00
160, 1788.65, 1064.66, 0.00, 0.00, 0.00, 0.00, 0.00, 0.00, 0.00
161, 1780.16, 1066.31, 0.00, 0.00, 0.00, 0.00, 0.00, 0.00, 0.00
162, 1781.21, 1070.76, 0.00, 0.00, 0.00, 0.00, 0.00, 0.00, 0.00
163, 1780.94, 1075.05, 0.00, 0.00, 0.00, 0.00, 0.00, 0.00, 0.00
164, 1772.98, 1061.22, 0.00, 0.00, 0.00, 0.00, 0.00, 0.00, 0.00
165, 1768.13, 1056.61, 0.00, 0.00, 0.00, 0.00, 0.00, 0.00, 0.00
166, 1757.41, 1048.99, 0.00, 0.00, 0.00, 0.00, 0.00, 0.00, 0.00
167, 1752.58, 1039.98, 0.00, 0.00, 0.00, 0.00, 0.00, 0.00, 0.00
168, 1745.45, 1038.91, 0.00, 0.00, 0.00, 0.00, 0.00, 0.00, 0.00
169, 1739.52, 1037.10, 0.00, 0.00, 0.00, 0.00, 0.00, 0.00, 0.00
170, 1739.95, 1041.75, 0.00, 0.00, 0.00, 0.00, 0.00, 0.00, 0.00
171, 1731.99, 1037.72, 0.00, 0.00, 0.00, 0.00, 0.00, 0.00, 0.00
172, 1728.46, 1027.33, 0.00, 0.00, 0.00, 0.00, 0.00, 0.00, 0.00
173, 1722.78, 1027.69, 0.00, 0.00, 0.00, 0.00, 0.00, 0.00, 0.00
174, 1717.19, 1023.22, 0.00, 0.00, 0.00, 0.00, 0.00, 0.00, 0.00
175, 1714.71, 1024.67, 0.00, 0.00, 0.00, 0.00, 0.00, 0.00, 0.00
176, 1709.53, 1022.23, 0.00, 0.00, 0.00, 0.00, 0.00, 0.00, 0.00
177, 1708.21, 1015.33, 0.00, 0.00, 0.00, 0.00, 0.00, 0.00, 0.00
178, 1702.02, 1025.39, 0.00, 0.00, 0.00, 0.00, 0.00, 0.00, 0.00
179, 1699.58, 1015.42, 0.00, 0.00, 0.00, 0.00, 0.00, 0.00, 0.00
180, 1693.64, 1009.58, 0.00, 0.00, 0.00, 0.00, 0.00, 0.00, 0.00
181, 1686.95, 1011.53, 0.00, 0.00, 0.00, 0.00, 0.00, 0.00, 0.00
182, 1682.97, 1002.41, 0.00, 0.00, 0.00, 0.00, 0.00, 0.00, 0.00
183, 1675.17, 1008.00, 0.00, 0.00, 0.00, 0.00, 0.00, 0.00, 0.00
184, 1671.89, 995.68, 0.00, 0.00, 0.00, 0.00, 0.00, 0.00, 0.00
185, 1666.34, 997.33, 0.00, 0.00, 0.00, 0.00, 0.00, 0.00, 0.00
186, 1659.37, 999.95, 0.00, 0.00, 0.00, 0.00, 0.00, 0.00, 0.00
187, 1658.88, 984.93, 0.00, 0.00, 0.00, 0.00, 0.00, 0.00, 0.00
188, 1650.34, 992.15, 0.00, 0.00, 0.00, 0.00, 0.00, 0.00, 0.00
189, 1647.26, 982.11, 0.00, 0.00, 0.00, 0.00, 0.00, 0.00, 0.00
190, 1642.85, 980.91, 0.00, 0.00, 0.00, 0.00, 0.00, 0.00, 0.00
191, 1636.46, 987.81, 0.00, 0.00, 0.00, 0.00, 0.00, 0.00, 0.00
192, 1634.65, 971.61, 0.00, 0.00, 0.00, 0.00, 0.00, 0.00, 0.00
193, 1627.32, 981.87, 0.00, 0.00, 0.00, 0.00, 0.00, 0.00, 0.00
194, 1627.63, 973.91, 0.00, 0.00, 0.00, 0.00, 0.00, 0.00, 0.00
195, 1622.04, 965.95, 0.00, 0.00, 0.00, 0.00, 0.00, 0.00, 0.00
196, 1613.95, 971.47, 0.00, 0.00, 0.00, 0.00, 0.00, 0.00, 0.00
197, 1614.94, 958.31, 0.00, 0.00, 0.00, 0.00, 0.00, 0.00, 0.00
198, 1603.83, 962.31, 0.00, 0.00, 0.00, 0.00, 0.00, 0.00, 0.00
199, 1601.46, 953.26, 0.00, 0.00, 0.00, 0.00, 0.00, 0.00, 0.00
200, 1597.55, 948.00, 0.00, 0.00, 0.00, 0.00, 0.00, 0.00, 0.00
201, 1592.25, 958.09, 0.00, 0.00, 0.00, 0.00, 0.00, 0.00, 0.00
202, 1592.47, 939.94, 0.00, 0.00, 0.00, 0.00, 0.00, 0.00, 0.00
203, 1582.46, 949.75, 0.00, 0.00, 0.00, 0.00, 0.00, 0.00, 0.00
204, 1580.04, 946.04, 0.00, 0.00, 0.00, 0.00, 0.00, 0.00, 0.00
205, 1575.91, 935.44, 0.00, 0.00, 0.00, 0.00, 0.00, 0.00, 0.00
206, 1570.10, 946.93, 0.00, 0.00, 0.00, 0.00, 0.00, 0.00, 0.00
207, 1568.47, 929.12, 0.00, 0.00, 0.00, 0.00, 0.00, 0.00, 0.00
208, 1560.42, 937.36, 0.00, 0.00, 0.00, 0.00, 0.00, 0.00, 0.00
209, 1559.26, 932.07, 0.00, 0.00, 0.00, 0.00, 0.00, 0.00, 0.00
210, 1553.18, 922.72, 0.00, 0.00, 0.00, 0.00, 0.00, 0.00, 0.00
211, 1542.47, 933.41, 0.00, 0.00, 0.00, 0.00, 0.00, 0.00, 0.00
212, 1543.23, 917.20, 0.00, 0.00, 0.00, 0.00, 0.00, 0.00, 0.00
213, 1534.74, 921.38, 0.00, 0.00, 0.00, 0.00, 0.00, 0.00, 0.00
214, 1534.18, 922.41, 0.00, 0.00, 0.00, 0.00, 0.00, 0.00, 0.00
215, 1528.66, 914.81, 0.00, 0.00, 0.00, 0.00, 0.00, 0.00, 0.00
216, 1516.01, 916.09, 0.00, 0.00, 0.00, 0.00, 0.00, 0.00, 0.00
217, 1518.33, 896.44, 0.00, 0.00, 0.00, 0.00, 0.00, 0.00, 0.00
218, 1498.37, 894.83, 0.00, 0.00, 0.00, 0.00, 0.00, 0.00, 0.00
219, 1487.51, 883.39, 0.00, 0.00, 0.00, 0.00, 0.00, 0.00, 0.00
220, 1478.97, 863.02, 0.00, 0.00, 0.00, 0.00, 0.00, 0.00, 0.00
221, 1458.27, 867.99, 0.00, 0.00, 0.00, 0.00, 0.00, 0.00, 0.00
222, 1454.92, 853.55, 0.00, 0.00, 0.00, 0.00, 0.00, 0.00, 0.00
223, 1438.25, 849.43, 0.00, 0.00, 0.00, 0.00, 0.00, 0.00, 0.00
224, 1429.84, 844.14, 0.00, 0.00, 0.00, 0.00, 0.00, 0.00, 0.00
225, 1431.25, 832.00, 0.00, 0.00, 0.00, 0.00, 0.00, 0.00, 0.00
226, 1420.79, 839.64, 0.00, 0.00, 0.00, 0.00, 0.00, 0.00, 0.00
227, 1421.79, 832.42, 0.00, 0.00, 0.00, 0.00, 0.00, 0.00, 0.00
228, 1414.57, 830.61, 0.00, 0.00, 0.00, 0.00, 0.00, 0.00, 0.00
229, 1413.73, 834.73, 0.00, 0.00, 0.00, 0.00, 0.00, 0.00, 0.00
230, 1411.13, 820.38, 0.00, 0.00, 0.00, 0.00, 0.00, 0.00, 0.00
231, 1400.69, 826.50, 0.00, 0.00, 0.00, 0.00, 0.00, 0.00, 0.00
232, 1404.47, 823.37, 0.00, 0.00, 0.00, 0.00, 0.00, 0.00, 0.00
233, 1399.31, 819.44, 0.00, 0.00, 0.00, 0.00, 0.00, 0.00, 0.00
234, 1392.45, 822.25, 0.00, 0.00, 0.00, 0.00, 0.00, 0.00, 0.00
235, 1394.17, 816.76, 0.00, 0.00, 0.00, 0.00, 0.00, 0.00, 0.00
236, 1385.70, 819.48, 0.00, 0.00, 0.00, 0.00, 0.00, 0.00, 0.00
237, 1382.88, 814.94, 0.00, 0.00, 0.00, 0.00, 0.00, 0.00, 0.00
238, 1377.20, 809.04, 0.00, 0.00, 0.00, 0.00, 0.00, 0.00, 0.00
239, 1371.44, 813.13, 0.00, 0.00, 0.00, 0.00, 0.00, 0.00, 0.00
240, 1370.63, 806.43, 0.00, 0.00, 0.00, 0.00, 0.00, 0.00, 0.00
241, 1361.60, 799.50, 0.00, 0.00, 0.00, 0.00, 0.00, 0.00, 0.00
242, 1360.57, 800.26, 0.00, 0.00, 0.00, 0.00, 0.00, 0.00, 0.00
243, 1358.87, 796.26, 0.00, 0.00, 0.00, 0.00, 0.00, 0.00, 0.00
244, 1354.00, 796.06, 0.00, 0.00, 0.00, 0.00, 0.00, 0.00, 0.00
245, 1350.13, 793.55, 0.00, 0.00, 0.00, 0.00, 0.00, 0.00, 0.00
246, 1343.99, 792.01, 0.00, 0.00, 0.00, 0.00, 0.00, 0.00, 0.00
247, 1343.03, 799.16, 0.00, 0.00, 0.00, 0.00, 0.00, 0.00, 0.00
248, 1338.82, 789.66, 0.00, 0.00, 0.00, 0.00, 0.00, 0.00, 0.00
249, 1332.34, 787.18, 0.00, 0.00, 0.00, 0.00, 0.00, 0.00, 0.00
250, 1331.40, 788.86, 0.00, 0.00, 0.00, 0.00, 0.00, 0.00, 0.00
251, 1327.63, 780.14, 0.00, 0.00, 0.00, 0.00, 0.00, 0.00, 0.00
252, 1321.66, 781.55, 0.00, 0.00, 0.00, 0.00, 0.00, 0.00, 0.00
253, 1319.18, 777.93, 0.00, 0.00, 0.00, 0.00, 0.00, 0.00, 0.00
254, 1314.33, 775.31, 0.00, 0.00, 0.00, 0.00, 0.00, 0.00, 0.00
255, 1310.44, 779.61, 0.00, 0.00, 0.00, 0.00, 0.00, 0.00, 0.00
256, 1306.97, 771.14, 0.00, 0.00, 0.00, 0.00, 0.00, 0.00, 0.00
257, 1303.06, 774.26, 0.00, 0.00, 0.00, 0.00, 0.00, 0.00, 0.00
258, 1299.02, 771.76, 0.00, 0.00, 0.00, 0.00, 0.00, 0.00, 0.00
259, 1293.09, 763.47, 0.00, 0.00, 0.00, 0.00, 0.00, 0.00, 0.00
260, 1289.92, 770.20, 0.00, 0.00, 0.00, 0.00, 0.00, 0.00, 0.00
261, 1286.12, 760.79, 0.00, 0.00, 0.00, 0.00, 0.00, 0.00, 0.00
262, 1280.67, 763.54, 0.00, 0.00, 0.00, 0.00, 0.00, 0.00, 0.00
263, 1278.30, 764.68, 0.00, 0.00, 0.00, 0.00, 0.00, 0.00, 0.00
264, 1277.33, 753.21, 0.00, 0.00, 0.00, 0.00, 0.00, 0.00, 0.00
265, 1271.95, 759.62, 0.00, 0.00, 0.00, 0.00, 0.00, 0.00, 0.00
266, 1269.98, 748.96, 0.00, 0.00, 0.00, 0.00, 0.00, 0.00, 0.00
267, 1261.53, 742.55, 0.00, 0.00, 0.00, 0.00, 0.00, 0.00, 0.00
268, 1258.16, 745.14, 0.00, 0.00, 0.00, 0.00, 0.00, 0.00, 0.00
269, 1254.29, 735.44, 0.00, 0.00, 0.00, 0.00, 0.00, 0.00, 0.00
270, 1248.66, 745.83, 0.00, 0.00, 0.00, 0.00, 0.00, 0.00, 0.00
271, 1247.58, 738.08, 0.00, 0.00, 0.00, 0.00, 0.00, 0.00, 0.00
272, 1241.93, 733.23, 0.00, 0.00, 0.00, 0.00, 0.00, 0.00, 0.00
273, 1235.78, 738.79, 0.00, 0.00, 0.00, 0.00, 0.00, 0.00, 0.00
274, 1234.49, 725.90, 0.00, 0.00, 0.00, 0.00, 0.00, 0.00, 0.00
275, 1223.18, 728.18, 0.00, 0.00, 0.00, 0.00, 0.00, 0.00, 0.00
276, 1220.74, 723.84, 0.00, 0.00, 0.00, 0.00, 0.00, 0.00, 0.00
277, 1218.53, 718.32, 0.00, 0.00, 0.00, 0.00, 0.00, 0.00, 0.00
278, 1212.36, 726.63, 0.00, 0.00, 0.00, 0.00, 0.00, 0.00, 0.00
279, 1217.34, 716.51, 0.00, 0.00, 0.00, 0.00, 0.00, 0.00, 0.00
280, 1210.39, 723.75, 0.00, 0.00, 0.00, 0.00, 0.00, 0.00, 0.00
281, 1208.63, 722.07, 0.00, 0.00, 0.00, 0.00, 0.00, 0.00, 0.00
282, 1210.24, 713.87, 0.00, 0.00, 0.00, 0.00, 0.00, 0.00, 0.00
283, 1200.18, 725.16, 0.00, 0.00, 0.00, 0.00, 0.00, 0.00, 0.00
284, 1198.93, 709.40, 0.00, 0.00, 0.00, 0.00, 0.00, 0.00, 0.00
285, 1197.38, 714.47, 0.00, 0.00, 0.00, 0.00, 0.00, 0.00, 0.00
286, 1191.39, 720.89, 0.00, 0.00, 0.00, 0.00, 0.00, 0.00, 0.00
287, 1190.52, 712.53, 0.00, 0.00, 0.00, 0.00, 0.00, 0.00, 0.00
288, 1186.63, 723.59, 0.00, 0.00, 0.00, 0.00, 0.00, 0.00, 0.00
289, 1187.97, 717.54, 0.00, 0.00, 0.00, 0.00, 0.00, 0.00, 0.00
290, 1182.21, 717.80, 0.00, 0.00, 0.00, 0.00, 0.00, 0.00, 0.00
291, 1182.70, 718.34, 0.00, 0.00, 0.00, 0.00, 0.00, 0.00, 0.00
292, 1180.73, 703.23, 0.00, 0.00, 0.00, 0.00, 0.00, 0.00, 0.00
293, 1170.43, 712.42, 0.00, 0.00, 0.00, 0.00, 0.00, 0.00, 0.00
294, 1169.96, 704.71, 0.00, 0.00, 0.00, 0.00, 0.00, 0.00, 0.00
295, 1161.31, 701.60, 0.00, 0.00, 0.00, 0.00, 0.00, 0.00, 0.00
296, 1156.26, 709.44, 0.00, 0.00, 0.00, 0.00, 0.00, 0.00, 0.00
297, 1156.39, 695.21, 0.00, 0.00, 0.00, 0.00, 0.00, 0.00, 0.00
298, 1147.74, 699.83, 0.00, 0.00, 0.00, 0.00, 0.00, 0.00, 0.00
299, 1147.16, 693.89, 0.00, 0.00, 0.00, 0.00, 0.00, 0.00, 0.00
300, 1142.15, 687.03, 0.00, 0.00, 0.00, 0.00, 0.00, 0.00, 0.00
301, 1136.07, 694.54, 0.00, 0.00, 0.00, 0.00, 0.00, 0.00, 0.00
302, 1136.03, 680.66, 0.00, 0.00, 0.00, 0.00, 0.00, 0.00, 0.00
303, 1125.63, 684.08, 0.00, 0.00, 0.00, 0.00, 0.00, 0.00, 0.00
304, 1125.28, 679.87, 0.00, 0.00, 0.00, 0.00, 0.00, 0.00, 0.00
305, 1121.23, 671.74, 0.00, 0.00, 0.00, 0.00, 0.00, 0.00, 0.00
306, 1113.61, 676.81, 0.00, 0.00, 0.00, 0.00, 0.00, 0.00, 0.00
307, 1116.11, 669.08, 0.00, 0.00, 0.00, 0.00, 0.00, 0.00, 0.00
308, 1108.15, 673.50, 0.00, 0.00, 0.00, 0.00, 0.00, 0.00, 0.00
309, 1108.96, 674.24, 0.00, 0.00, 0.00, 0.00, 0.00, 0.00, 0.00
310, 1107.04, 665.97, 0.00, 0.00, 0.00, 0.00, 0.00, 0.00, 0.00
311, 1098.61, 668.92, 0.00, 0.00, 0.00, 0.00, 0.00, 0.00, 0.00
312, 1099.19, 660.18, 0.00, 0.00, 0.00, 0.00, 0.00, 0.00, 0.00
313, 1091.59, 661.05, 0.00, 0.00, 0.00, 0.00, 0.00, 0.00, 0.00
314, 1089.20, 660.65, 0.00, 0.00, 0.00, 0.00, 0.00, 0.00, 0.00
315, 1085.91, 650.06, 0.00, 0.00, 0.00, 0.00, 0.00, 0.00, 0.00
316, 1077.56, 656.25, 0.00, 0.00, 0.00, 0.00, 0.00, 0.00, 0.00
317, 1076.57, 647.73, 0.00, 0.00, 0.00, 0.00, 0.00, 0.00, 0.00
318, 1067.99, 643.13, 0.00, 0.00, 0.00, 0.00, 0.00, 0.00, 0.00
319, 1065.02, 644.76, 0.00, 0.00, 0.00, 0.00, 0.00, 0.00, 0.00
320, 1060.59, 634.32, 0.00, 0.00, 0.00, 0.00, 0.00, 0.00, 0.00
321, 1053.33, 640.33, 0.00, 0.00, 0.00, 0.00, 0.00, 0.00, 0.00
322, 1055.63, 640.00, 0.00, 0.00, 0.00, 0.00, 0.00, 0.00, 0.00
323, 1048.99, 635.12, 0.00, 0.00, 0.00, 0.00, 0.00, 0.00, 0.00
324, 1046.06, 638.32, 0.00, 0.00, 0.00, 0.00, 0.00, 0.00, 0.00
325, 1042.11, 628.44, 0.00, 0.00, 0.00, 0.00, 0.00, 0.00, 0.00
326, 1039.02, 630.52, 0.00, 0.00, 0.00, 0.00, 0.00, 0.00, 0.00
327, 1038.82, 631.01, 0.00, 0.00, 0.00, 0.00, 0.00, 0.00, 0.00
328, 1034.30, 625.54, 0.00, 0.00, 0.00, 0.00, 0.00, 0.00, 0.00
329, 1033.52, 631.68, 0.00, 0.00, 0.00, 0.00, 0.00, 0.00, 0.00
330, 1034.22, 626.92, 0.00, 0.00, 0.00, 0.00, 0.00, 0.00, 0.00
331, 1028.52, 623.81, 0.00, 0.00, 0.00, 0.00, 0.00, 0.00, 0.00
332, 1026.26, 625.94, 0.00, 0.00, 0.00, 0.00, 0.00, 0.00, 0.00
333, 1024.36, 617.31, 0.00, 0.00, 0.00, 0.00, 0.00, 0.00, 0.00
334, 1018.97, 619.70, 0.00, 0.00, 0.00, 0.00, 0.00, 0.00, 0.00
335, 1016.76, 615.54, 0.00, 0.00, 0.00, 0.00, 0.00, 0.00, 0.00
336, 1012.38, 610.54, 0.00, 0.00, 0.00, 0.00, 0.00, 0.00, 0.00
337, 1010.05, 615.84, 0.00, 0.00, 0.00, 0.00, 0.00, 0.00, 0.00
338, 1005.27, 607.30, 0.00, 0.00, 0.00, 0.00, 0.00, 0.00, 0.00
339, 1000.58, 608.44, 0.00, 0.00, 0.00, 0.00, 0.00, 0.00, 0.00
340, 996.24, 608.30, 0.00, 0.00, 0.00, 0.00, 0.00, 0.00, 0.00
341, 994.47, 599.81, 0.00, 0.00, 0.00, 0.00, 0.00, 0.00, 0.00
342, 988.68, 604.21, 0.00, 0.00, 0.00, 0.00, 0.00, 0.00, 0.00
343, 987.50, 595.00, 0.00, 0.00, 0.00, 0.00, 0.00, 0.00, 0.00
344, 980.57, 592.66, 0.00, 0.00, 0.00, 0.00, 0.00, 0.00, 0.00
345, 978.45, 594.87, 0.00, 0.00, 0.00, 0.00, 0.00, 0.00, 0.00
346, 972.52, 585.73, 0.00, 0.00, 0.00, 0.00, 0.00, 0.00, 0.00
347, 966.60, 592.43, 0.00, 0.00, 0.00, 0.00, 0.00, 0.00, 0.00
348, 964.86, 583.02, 0.00, 0.00, 0.00, 0.00, 0.00, 0.00, 0.00
349, 960.01, 580.03, 0.00, 0.00, 0.00, 0.00, 0.00, 0.00, 0.00
350, 956.77, 584.12, 0.00, 0.00, 0.00, 0.00, 0.00, 0.00, 0.00
351, 955.27, 574.35, 0.00, 0.00, 0.00, 0.00, 0.00, 0.00, 0.00
352, 951.33, 582.71, 0.00, 0.00, 0.00, 0.00, 0.00, 0.00, 0.00
353, 950.62, 575.00, 0.00, 0.00, 0.00, 0.00, 0.00, 0.00, 0.00
354, 949.59, 574.04, 0.00, 0.00, 0.00, 0.00, 0.00, 0.00, 0.00
355, 947.33, 581.82, 0.00, 0.00, 0.00, 0.00, 0.00, 0.00, 0.00
356, 946.08, 571.13, 0.00, 0.00, 0.00, 0.00, 0.00, 0.00, 0.00
357, 940.25, 575.22, 0.00, 0.00, 0.00, 0.00, 0.00, 0.00, 0.00
358, 937.21, 566.59, 0.00, 0.00, 0.00, 0.00, 0.00, 0.00, 0.00
359, 934.64, 562.08, 0.00, 0.00, 0.00, 0.00, 0.00, 0.00, 0.00
360, 927.51, 567.82, 0.00, 0.00, 0.00, 0.00, 0.00, 0.00, 0.00
361, 929.07, 556.92, 0.00, 0.00, 0.00, 0.00, 0.00, 0.00, 0.00
362, 927.33, 564.67, 0.00, 0.00, 0.00, 0.00, 0.00, 0.00, 0.00
363, 922.99, 559.98, 0.00, 0.00, 0.00, 0.00, 0.00, 0.00, 0.00
364, 920.04, 555.11, 0.00, 0.00, 0.00, 0.00, 0.00, 0.00, 0.00
365, 911.95, 561.14, 0.00, 0.00, 0.00, 0.00, 0.00, 0.00, 0.00
366, 912.13, 547.82, 0.00, 0.00, 0.00, 0.00, 0.00, 0.00, 0.00
367, 910.50, 551.93, 0.00, 0.00, 0.00, 0.00, 0.00, 0.00, 0.00
368, 908.17, 550.19, 0.00, 0.00, 0.00, 0.00, 0.00, 0.00, 0.00
369, 908.46, 541.81, 0.00, 0.00, 0.00, 0.00, 0.00, 0.00, 0.00
370, 903.57, 544.98, 0.00, 0.00, 0.00, 0.00, 0.00, 0.00, 0.00
371, 901.80, 535.10, 0.00, 0.00, 0.00, 0.00, 0.00, 0.00, 0.00
372, 892.08, 535.23, 0.00, 0.00, 0.00, 0.00, 0.00, 0.00, 0.00
373, 888.75, 536.87, 0.00, 0.00, 0.00, 0.00, 0.00, 0.00, 0.00
374, 888.68, 532.93, 0.00, 0.00, 0.00, 0.00, 0.00, 0.00, 0.00
375, 885.15, 537.02, 0.00, 0.00, 0.00, 0.00, 0.00, 0.00, 0.00
376, 884.15, 527.30, 0.00, 0.00, 0.00, 0.00, 0.00, 0.00, 0.00
377, 878.02, 530.63, 0.00, 0.00, 0.00, 0.00, 0.00, 0.00, 0.00
378, 873.66, 533.04, 0.00, 0.00, 0.00, 0.00, 0.00, 0.00, 0.00
379, 874.38, 527.41, 0.00, 0.00, 0.00, 0.00, 0.00, 0.00, 0.00
380, 869.46, 529.85, 0.00, 0.00, 0.00, 0.00, 0.00, 0.00, 0.00
381, 869.95, 522.36, 0.00, 0.00, 0.00, 0.00, 0.00, 0.00, 0.00
382, 864.21, 520.80, 0.00, 0.00, 0.00, 0.00, 0.00, 0.00, 0.00
383, 859.51, 519.66, 0.00, 0.00, 0.00, 0.00, 0.00, 0.00, 0.00
384, 859.92, 515.43, 0.00, 0.00, 0.00, 0.00, 0.00, 0.00, 0.00
385, 850.46, 516.86, 0.00, 0.00, 0.00, 0.00, 0.00, 0.00, 0.00
386, 847.47, 511.50, 0.00, 0.00, 0.00, 0.00, 0.00, 0.00, 0.00
387, 847.15, 513.44, 0.00, 0.00, 0.00, 0.00, 0.00, 0.00, 0.00
388, 843.76, 512.53, 0.00, 0.00, 0.00, 0.00, 0.00, 0.00, 0.00
389, 842.26, 508.37, 0.00, 0.00, 0.00, 0.00, 0.00, 0.00, 0.00
390, 836.29, 508.90, 0.00, 0.00, 0.00, 0.00, 0.00, 0.00, 0.00
391, 834.01, 505.98, 0.00, 0.00, 0.00, 0.00, 0.00, 0.00, 0.00
392, 831.69, 504.59, 0.00, 0.00, 0.00, 0.00, 0.00, 0.00, 0.00
393, 823.62, 498.73, 0.00, 0.00, 0.00, 0.00, 0.00, 0.00, 0.00
394, 822.83, 496.68, 0.00, 0.00, 0.00, 0.00, 0.00, 0.00, 0.00
395, 819.08, 496.01, 0.00, 0.00, 0.00, 0.00, 0.00, 0.00, 0.00
396, 818.10, 494.67, 0.00, 0.00, 0.00, 0.00, 0.00, 0.00, 0.00
397, 815.55, 492.61, 0.00, 0.00, 0.00, 0.00, 0.00, 0.00, 0.00
398, 811.19, 490.04, 0.00, 0.00, 0.00, 0.00, 0.00, 0.00, 0.00
399, 810.45, 487.80, 0.00, 0.00, 0.00, 0.00, 0.00, 0.00, 0.00
400, 804.77, 485.06, 0.00, 0.00, 0.00, 0.00, 0.00, 0.00, 0.00
401, 802.47, 485.39, 0.00, 0.00, 0.00, 0.00, 0.00, 0.00, 0.00
402, 800.82, 484.21, 0.00, 0.00, 0.00, 0.00, 0.00, 0.00, 0.00
403, 796.66, 480.27, 0.00, 0.00, 0.00, 0.00, 0.00, 0.00, 0.00
404, 797.82, 480.72, 0.00, 0.00, 0.00, 0.00, 0.00, 0.00, 0.00
405, 795.19, 480.61, 0.00, 0.00, 0.00, 0.00, 0.00, 0.00, 0.00
406, 792.73, 480.05, 0.00, 0.00, 0.00, 0.00, 0.00, 0.00, 0.00
407, 791.07, 481.84, 0.00, 0.00, 0.00, 0.00, 0.00, 0.00, 0.00
408, 786.92, 479.80, 0.00, 0.00, 0.00, 0.00, 0.00, 0.00, 0.00
409, 783.50, 481.10, 0.00, 0.00, 0.00, 0.00, 0.00, 0.00, 0.00
410, 776.97, 474.71, 0.00, 0.00, 0.00, 0.00, 0.00, 0.00, 0.00
411, 773.62, 471.82, 0.00, 0.00, 0.00, 0.00, 0.00, 0.00, 0.00
412, 770.38, 471.24, 0.00, 0.00, 0.00, 0.00, 0.00, 0.00, 0.00
413, 767.58, 463.89, 0.00, 0.00, 0.00, 0.00, 0.00, 0.00, 0.00
414, 765.08, 466.01, 0.00, 0.00, 0.00, 0.00, 0.00, 0.00, 0.00
415, 761.95, 462.64, 0.00, 0.00, 0.00, 0.00, 0.00, 0.00, 0.00
416, 760.00, 460.13, 0.00, 0.00, 0.00, 0.00, 0.00, 0.00, 0.00
417, 756.79, 462.48, 0.00, 0.00, 0.00, 0.00, 0.00, 0.00, 0.00
418, 751.49, 454.32, 0.00, 0.00, 0.00, 0.00, 0.00, 0.00, 0.00
419, 748.85, 456.96, 0.00, 0.00, 0.00, 0.00, 0.00, 0.00, 0.00
420, 744.74, 453.18, 0.00, 0.00, 0.00, 0.00, 0.00, 0.00, 0.00
421, 742.01, 448.06, 0.00, 0.00, 0.00, 0.00, 0.00, 0.00, 0.00
422, 739.28, 450.86, 0.00, 0.00, 0.00, 0.00, 0.00, 0.00, 0.00
423, 736.13, 443.86, 0.00, 0.00, 0.00, 0.00, 0.00, 0.00, 0.00
424, 734.90, 448.69, 0.00, 0.00, 0.00, 0.00, 0.00, 0.00, 0.00
425, 733.16, 443.50, 0.00, 0.00, 0.00, 0.00, 0.00, 0.00, 0.00
426, 728.51, 437.58, 0.00, 0.00, 0.00, 0.00, 0.00, 0.00, 0.00
427, 726.10, 443.32, 0.00, 0.00, 0.00, 0.00, 0.00, 0.00, 0.00
428, 725.18, 434.32, 0.00, 0.00, 0.00, 0.00, 0.00, 0.00, 0.00
429, 723.06, 439.95, 0.00, 0.00, 0.00, 0.00, 0.00, 0.00, 0.00
430, 719.44, 435.79, 0.00, 0.00, 0.00, 0.00, 0.00, 0.00, 0.00
431, 718.92, 430.11, 0.00, 0.00, 0.00, 0.00, 0.00, 0.00, 0.00
432, 715.61, 434.76, 0.00, 0.00, 0.00, 0.00, 0.00, 0.00, 0.00
433, 712.98, 422.67, 0.00, 0.00, 0.00, 0.00, 0.00, 0.00, 0.00
434, 707.90, 423.68, 0.00, 0.00, 0.00, 0.00, 0.00, 0.00, 0.00
435, 702.96, 419.61, 0.00, 0.00, 0.00, 0.00, 0.00, 0.00, 0.00
436, 700.46, 416.03, 0.00, 0.00, 0.00, 0.00, 0.00, 0.00, 0.00
437, 694.00, 422.16, 0.00, 0.00, 0.00, 0.00, 0.00, 0.00, 0.00
438, 690.33, 408.12, 0.00, 0.00, 0.00, 0.00, 0.00, 0.00, 0.00
439, 685.13, 413.95, 0.00, 0.00, 0.00, 0.00, 0.00, 0.00, 0.00
440, 684.37, 411.79, 0.00, 0.00, 0.00, 0.00, 0.00, 0.00, 0.00
441, 685.53, 405.95, 0.00, 0.00, 0.00, 0.00, 0.00, 0.00, 0.00
442, 683.07, 414.22, 0.00, 0.00, 0.00, 0.00, 0.00, 0.00, 0.00
443, 683.20, 403.78, 0.00, 0.00, 0.00, 0.00, 0.00, 0.00, 0.00
444, 679.22, 406.78, 0.00, 0.00, 0.00, 0.00, 0.00, 0.00, 0.00
445, 676.12, 402.80, 0.00, 0.00, 0.00, 0.00, 0.00, 0.00, 0.00
446, 672.88, 397.46, 0.00, 0.00, 0.00, 0.00, 0.00, 0.00, 0.00
447, 667.65, 407.74, 0.00, 0.00, 0.00, 0.00, 0.00, 0.00, 0.00
448, 667.78, 395.11, 0.00, 0.00, 0.00, 0.00, 0.00, 0.00, 0.00
449, 665.41, 402.09, 0.00, 0.00, 0.00, 0.00, 0.00, 0.00, 0.00
450, 662.80, 400.21, 0.00, 0.00, 0.00, 0.00, 0.00, 0.00, 0.00
451, 662.39, 393.79, 0.00, 0.00, 0.00, 0.00, 0.00, 0.00, 0.00
452, 658.97, 401.97, 0.00, 0.00, 0.00, 0.00, 0.00, 0.00, 0.00
453, 659.33, 390.64, 0.00, 0.00, 0.00, 0.00, 0.00, 0.00, 0.00
454, 655.87, 396.88, 0.00, 0.00, 0.00, 0.00, 0.00, 0.00, 0.00
455, 654.70, 394.20, 0.00, 0.00, 0.00, 0.00, 0.00, 0.00, 0.00
456, 650.55, 385.34, 0.00, 0.00, 0.00, 0.00, 0.00, 0.00, 0.00
457, 644.42, 392.30, 0.00, 0.00, 0.00, 0.00, 0.00, 0.00, 0.00
458, 643.01, 380.67, 0.00, 0.00, 0.00, 0.00, 0.00, 0.00, 0.00
459, 637.74, 385.52, 0.00, 0.00, 0.00, 0.00, 0.00, 0.00, 0.00
460, 635.01, 382.53, 0.00, 0.00, 0.00, 0.00, 0.00, 0.00, 0.00
461, 633.94, 375.06, 0.00, 0.00, 0.00, 0.00, 0.00, 0.00, 0.00
462, 626.45, 382.44, 0.00, 0.00, 0.00, 0.00, 0.00, 0.00, 0.00
463, 626.43, 370.35, 0.00, 0.00, 0.00, 0.00, 0.00, 0.00, 0.00
464, 623.14, 374.82, 0.00, 0.00, 0.00, 0.00, 0.00, 0.00, 0.00
465, 617.33, 372.96, 0.00, 0.00, 0.00, 0.00, 0.00, 0.00, 0.00
466, 617.74, 365.16, 0.00, 0.00, 0.00, 0.00, 0.00, 0.00, 0.00
467, 613.13, 373.27, 0.00, 0.00, 0.00, 0.00, 0.00, 0.00, 0.00
468, 613.85, 363.91, 0.00, 0.00, 0.00, 0.00, 0.00, 0.00, 0.00
469, 610.11, 368.94, 0.00, 0.00, 0.00, 0.00, 0.00, 0.00, 0.00
470, 608.86, 367.19, 0.00, 0.00, 0.00, 0.00, 0.00, 0.00, 0.00
471, 609.51, 362.32, 0.00, 0.00, 0.00, 0.00, 0.00, 0.00, 0.00
472, 602.85, 368.47, 0.00, 0.00, 0.00, 0.00, 0.00, 0.00, 0.00
473, 603.52, 358.14, 0.00, 0.00, 0.00, 0.00, 0.00, 0.00, 0.00
474, 600.26, 363.64, 0.00, 0.00, 0.00, 0.00, 0.00, 0.00, 0.00
475, 597.75, 361.96, 0.00, 0.00, 0.00, 0.00, 0.00, 0.00, 0.00
476, 598.58, 355.08, 0.00, 0.00, 0.00, 0.00, 0.00, 0.00, 0.00
477, 593.93, 363.53, 0.00, 0.00, 0.00, 0.00, 0.00, 0.00, 0.00
478, 595.12, 355.50, 0.00, 0.00, 0.00, 0.00, 0.00, 0.00, 0.00
479, 593.13, 359.75, 0.00, 0.00, 0.00, 0.00, 0.00, 0.00, 0.00
480, 588.68, 356.11, 0.00, 0.00, 0.00, 0.00, 0.00, 0.00, 0.00
481, 588.88, 348.15, 0.00, 0.00, 0.00, 0.00, 0.00, 0.00, 0.00
482, 583.58, 355.33, 0.00, 0.00, 0.00, 0.00, 0.00, 0.00, 0.00
483, 584.23, 346.61, 0.00, 0.00, 0.00, 0.00, 0.00, 0.00, 0.00
484, 579.49, 346.72, 0.00, 0.00, 0.00, 0.00, 0.00, 0.00, 0.00
485, 573.68, 347.46, 0.00, 0.00, 0.00, 0.00, 0.00, 0.00, 0.00
486, 571.82, 339.90, 0.00, 0.00, 0.00, 0.00, 0.00, 0.00, 0.00
487, 563.13, 347.17, 0.00, 0.00, 0.00, 0.00, 0.00, 0.00, 0.00
488, 563.00, 336.44, 0.00, 0.00, 0.00, 0.00, 0.00, 0.00, 0.00
489, 565.23, 343.08, 0.00, 0.00, 0.00, 0.00, 0.00, 0.00, 0.00
490, 563.93, 343.03, 0.00, 0.00, 0.00, 0.00, 0.00, 0.00, 0.00
491, 565.14, 334.99, 0.00, 0.00, 0.00, 0.00, 0.00, 0.00, 0.00
492, 560.60, 339.88, 0.00, 0.00, 0.00, 0.00, 0.00, 0.00, 0.00
493, 560.85, 326.11, 0.00, 0.00, 0.00, 0.00, 0.00, 0.00, 0.00
494, 550.05, 326.51, 0.00, 0.00, 0.00, 0.00, 0.00, 0.00, 0.00
495, 544.73, 326.51, 0.00, 0.00, 0.00, 0.00, 0.00, 0.00, 0.00
496, 547.35, 325.71, 0.00, 0.00, 0.00, 0.00, 0.00, 0.00, 0.00
497, 542.03, 328.10, 0.00, 0.00, 0.00, 0.00, 0.00, 0.00, 0.00
498, 544.38, 320.10, 0.00, 0.00, 0.00, 0.00, 0.00, 0.00, 0.00
499, 537.78, 323.97, 0.00, 0.00, 0.00, 0.00, 0.00, 0.00, 0.00
500, 534.97, 318.40, 0.00, 0.00, 0.00, 0.00, 0.00, 0.00, 0.00
501, 535.59, 314.80, 0.00, 0.00, 0.00, 0.00, 0.00, 0.00, 0.00
502, 528.84, 319.38, 0.00, 0.00, 0.00, 0.00, 0.00, 0.00, 0.00
503, 530.47, 314.33, 0.00, 0.00, 0.00, 0.00, 0.00, 0.00, 0.00
504, 526.45, 317.62, 0.00, 0.00, 0.00, 0.00, 0.00, 0.00, 0.00
505, 523.63, 312.12, 0.00, 0.00, 0.00, 0.00, 0.00, 0.00, 0.00
506, 525.36, 309.66, 0.00, 0.00, 0.00, 0.00, 0.00, 0.00, 0.00
507, 519.72, 314.91, 0.00, 0.00, 0.00, 0.00, 0.00, 0.00, 0.00
508, 518.81, 305.95, 0.00, 0.00, 0.00, 0.00, 0.00, 0.00, 0.00
509, 516.37, 309.44, 0.00, 0.00, 0.00, 0.00, 0.00, 0.00, 0.00
510, 512.50, 304.14, 0.00, 0.00, 0.00, 0.00, 0.00, 0.00, 0.00
511, 509.17, 298.62, 0.00, 0.00, 0.00, 0.00, 0.00, 0.00, 0.00
512, 502.29, 301.39, 0.00, 0.00, 0.00, 0.00, 0.00, 0.00, 0.00
513, 503.29, 294.35, 0.00, 0.00, 0.00, 0.00, 0.00, 0.00, 0.00
514, 497.64, 295.18, 0.00, 0.00, 0.00, 0.00, 0.00, 0.00, 0.00
515, 497.15, 293.30, 0.00, 0.00, 0.00, 0.00, 0.00, 0.00, 0.00
516, 498.02, 293.37, 0.00, 0.00, 0.00, 0.00, 0.00, 0.00, 0.00
517, 492.48, 296.47, 0.00, 0.00, 0.00, 0.00, 0.00, 0.00, 0.00
518, 496.03, 291.91, 0.00, 0.00, 0.00, 0.00, 0.00, 0.00, 0.00
519, 493.28, 296.41, 0.00, 0.00, 0.00, 0.00, 0.00, 0.00, 0.00
520, 490.04, 293.23, 0.00, 0.00, 0.00, 0.00, 0.00, 0.00, 0.00
521, 491.65, 291.44, 0.00, 0.00, 0.00, 0.00, 0.00, 0.00, 0.00
522, 487.09, 292.25, 0.00, 0.00, 0.00, 0.00, 0.00, 0.00, 0.00
523, 483.60, 286.01, 0.00, 0.00, 0.00, 0.00, 0.00, 0.00, 0.00
524, 478.60, 286.73, 0.00, 0.00, 0.00, 0.00, 0.00, 0.00, 0.00
525, 475.15, 280.94, 0.00, 0.00, 0.00, 0.00, 0.00, 0.00, 0.00
526, 473.50, 279.69, 0.00, 0.00, 0.00, 0.00, 0.00, 0.00, 0.00
527, 467.46, 280.85, 0.00, 0.00, 0.00, 0.00, 0.00, 0.00, 0.00
528, 468.56, 274.97, 0.00, 0.00, 0.00, 0.00, 0.00, 0.00, 0.00
529, 466.03, 282.10, 0.00, 0.00, 0.00, 0.00, 0.00, 0.00, 0.00
530, 465.07, 278.26, 0.00, 0.00, 0.00, 0.00, 0.00, 0.00, 0.00
531, 465.05, 278.55, 0.00, 0.00, 0.00, 0.00, 0.00, 0.00, 0.00
532, 460.07, 282.70, 0.00, 0.00, 0.00, 0.00, 0.00, 0.00, 0.00
533, 459.04, 275.33, 0.00, 0.00, 0.00, 0.00, 0.00, 0.00, 0.00
534, 453.72, 278.73, 0.00, 0.00, 0.00, 0.00, 0.00, 0.00, 0.00
535, 452.89, 270.10, 0.00, 0.00, 0.00, 0.00, 0.00, 0.00, 0.00
536, 450.25, 266.99, 0.00, 0.00, 0.00, 0.00, 0.00, 0.00, 0.00
537, 443.59, 266.77, 0.00, 0.00, 0.00, 0.00, 0.00, 0.00, 0.00
538, 441.34, 258.23, 0.00, 0.00, 0.00, 0.00, 0.00, 0.00, 0.00
539, 436.33, 276.71, 0.00, 0.00, 0.00, 0.00, 0.00, 0.00, 0.00
540, 443.68, 272.89, 0.00, 0.00, 0.00, 0.00, 0.00, 0.00, 0.00
541, 454.90, 276.16, 0.00, 0.00, 0.00, 0.00, 0.00, 0.00, 0.00
542, 456.89, 289.46, 0.00, 0.00, 0.00, 0.00, 0.00, 0.00, 0.00
543, 470.88, 286.28, 0.00, 0.00, 0.00, 0.00, 0.00, 0.00, 0.00
544, 483.96, 301.61, 0.00, 0.00, 0.00, 0.00, 0.00, 0.00, 0.00
545, 489.48, 301.93, 0.00, 0.00, 0.00, 0.00, 0.00, 0.00, 0.00
546, 492.41, 309.33, 0.00, 0.00, 0.00, 0.00, 0.00, 0.00, 0.00
547, 502.24, 321.98, 0.00, 0.00, 0.00, 0.00, 0.00, 0.00, 0.00
548, 507.88, 309.86, 0.00, 0.00, 0.00, 0.00, 0.00, 0.00, 0.00
549, 505.82, 320.17, 0.00, 0.00, 0.00, 0.00, 0.00, 0.00, 0.00
550, 503.58, 311.52, 0.00, 0.00, 0.00, 0.00, 0.00, 0.00, 0.00
551, 496.52, 305.53, 0.00, 0.00, 0.00, 0.00, 0.00, 0.00, 0.00
552, 491.31, 311.16, 0.00, 0.00, 0.00, 0.00, 0.00, 0.00, 0.00
553, 491.92, 295.51, 0.00, 0.00, 0.00, 0.00, 0.00, 0.00, 0.00
554, 484.21, 302.53, 0.00, 0.00, 0.00, 0.00, 0.00, 0.00, 0.00
555, 484.54, 291.82, 0.00, 0.00, 0.00, 0.00, 0.00, 0.00, 0.00
556, 483.45, 289.86, 0.00, 0.00, 0.00, 0.00, 0.00, 0.00, 0.00
557, 478.51, 297.50, 0.00, 0.00, 0.00, 0.00, 0.00, 0.00, 0.00
558, 478.75, 284.72, 0.00, 0.00, 0.00, 0.00, 0.00, 0.00, 0.00
559, 472.05, 293.08, 0.00, 0.00, 0.00, 0.00, 0.00, 0.00, 0.00
560, 472.27, 287.76, 0.00, 0.00, 0.00, 0.00, 0.00, 0.00, 0.00
561, 467.91, 283.08, 0.00, 0.00, 0.00, 0.00, 0.00, 0.00, 0.00
562, 459.10, 288.78, 0.00, 0.00, 0.00, 0.00, 0.00, 0.00, 0.00
563, 461.34, 273.79, 0.00, 0.00, 0.00, 0.00, 0.00, 0.00, 0.00
564, 453.56, 280.29, 0.00, 0.00, 0.00, 0.00, 0.00, 0.00, 0.00
565, 452.53, 273.79, 0.00, 0.00, 0.00, 0.00, 0.00, 0.00, 0.00
566, 453.23, 269.85, 0.00, 0.00, 0.00, 0.00, 0.00, 0.00, 0.00
567, 446.99, 277.68, 0.00, 0.00, 0.00, 0.00, 0.00, 0.00, 0.00
568, 450.48, 264.94, 0.00, 0.00, 0.00, 0.00, 0.00, 0.00, 0.00
569, 443.79, 270.48, 0.00, 0.00, 0.00, 0.00, 0.00, 0.00, 0.00
570, 441.38, 267.75, 0.00, 0.00, 0.00, 0.00, 0.00, 0.00, 0.00
571, 439.35, 258.39, 0.00, 0.00, 0.00, 0.00, 0.00, 0.00, 0.00
572, 434.99, 266.08, 0.00, 0.00, 0.00, 0.00, 0.00, 0.00, 0.00
573, 439.12, 257.29, 0.00, 0.00, 0.00, 0.00, 0.00, 0.00, 0.00
574, 433.85, 262.95, 0.00, 0.00, 0.00, 0.00, 0.00, 0.00, 0.00
575, 434.36, 264.78, 0.00, 0.00, 0.00, 0.00, 0.00, 0.00, 0.00
576, 435.68, 257.76, 0.00, 0.00, 0.00, 0.00, 0.00, 0.00, 0.00
577, 430.54, 266.75, 0.00, 0.00, 0.00, 0.00, 0.00, 0.00, 0.00
578, 433.15, 262.88, 0.00, 0.00, 0.00, 0.00, 0.00, 0.00, 0.00
579, 427.37, 264.89, 0.00, 0.00, 0.00, 0.00, 0.00, 0.00, 0.00
580, 426.07, 262.99, 0.00, 0.00, 0.00, 0.00, 0.00, 0.00, 0.00
581, 424.21, 256.67, 0.00, 0.00, 0.00, 0.00, 0.00, 0.00, 0.00
582, 417.82, 261.14, 0.00, 0.00, 0.00, 0.00, 0.00, 0.00, 0.00
583, 421.06, 254.97, 0.00, 0.00, 0.00, 0.00, 0.00, 0.00, 0.00
584, 417.75, 255.44, 0.00, 0.00, 0.00, 0.00, 0.00, 0.00, 0.00
585, 414.96, 256.98, 0.00, 0.00, 0.00, 0.00, 0.00, 0.00, 0.00
586, 415.09, 254.59, 0.00, 0.00, 0.00, 0.00, 0.00, 0.00, 0.00
587, 409.22, 253.49, 0.00, 0.00, 0.00, 0.00, 0.00, 0.00, 0.00
588, 407.49, 247.72, 0.00, 0.00, 0.00, 0.00, 0.00, 0.00, 0.00
589, 402.51, 248.19, 0.00, 0.00, 0.00, 0.00, 0.00, 0.00, 0.00
590, 401.82, 248.55, 0.00, 0.00, 0.00, 0.00, 0.00, 0.00, 0.00
591, 404.88, 245.44, 0.00, 0.00, 0.00, 0.00, 0.00, 0.00, 0.00
592, 396.68, 246.05, 0.00, 0.00, 0.00, 0.00, 0.00, 0.00, 0.00
593, 396.48, 243.01, 0.00, 0.00, 0.00, 0.00, 0.00, 0.00, 0.00
594, 392.88, 238.98, 0.00, 0.00, 0.00, 0.00, 0.00, 0.00, 0.00
595, 389.41, 238.69, 0.00, 0.00, 0.00, 0.00, 0.00, 0.00, 0.00
596, 388.88, 240.82, 0.00, 0.00, 0.00, 0.00, 0.00, 0.00, 0.00
597, 384.25, 236.46, 0.00, 0.00, 0.00, 0.00, 0.00, 0.00, 0.00
598, 387.71, 236.91, 0.00, 0.00, 0.00, 0.00, 0.00, 0.00, 0.00
599, 387.53, 234.76, 0.00, 0.00, 0.00, 0.00, 0.00, 0.00, 0.00
600, 380.72, 229.62, 0.00, 0.00, 0.00, 0.00, 0.00, 0.00, 0.00
601, 380.36, 229.13, 0.00, 0.00, 0.00, 0.00, 0.00, 0.00, 0.00
602, 376.56, 227.88, 0.00, 0.00, 0.00, 0.00, 0.00, 0.00, 0.00
603, 375.42, 229.73, 0.00, 0.00, 0.00, 0.00, 0.00, 0.00, 0.00
604, 373.70, 226.07, 0.00, 0.00, 0.00, 0.00, 0.00, 0.00, 0.00
605, 373.05, 224.14, 0.00, 0.00, 0.00, 0.00, 0.00, 0.00, 0.00
606, 372.54, 229.69, 0.00, 0.00, 0.00, 0.00, 0.00, 0.00, 0.00
607, 371.71, 224.88, 0.00, 0.00, 0.00, 0.00, 0.00, 0.00, 0.00
608, 369.74, 222.96, 0.00, 0.00, 0.00, 0.00, 0.00, 0.00, 0.00
609, 365.50, 223.52, 0.00, 0.00, 0.00, 0.00, 0.00, 0.00, 0.00
610, 364.22, 218.02, 0.00, 0.00, 0.00, 0.00, 0.00, 0.00, 0.00
611, 362.48, 221.39, 0.00, 0.00, 0.00, 0.00, 0.00, 0.00, 0.00
612, 357.09, 213.82, 0.00, 0.00, 0.00, 0.00, 0.00, 0.00, 0.00
613, 357.76, 217.21, 0.00, 0.00, 0.00, 0.00, 0.00, 0.00, 0.00
614, 354.72, 216.41, 0.00, 0.00, 0.00, 0.00, 0.00, 0.00, 0.00
615, 353.40, 210.80, 0.00, 0.00, 0.00, 0.00, 0.00, 0.00, 0.00
616, 349.98, 215.05, 0.00, 0.00, 0.00, 0.00, 0.00, 0.00, 0.00
617, 345.96, 208.63, 0.00, 0.00, 0.00, 0.00, 0.00, 0.00, 0.00
618, 344.19, 207.89, 0.00, 0.00, 0.00, 0.00, 0.00, 0.00, 0.00
619, 343.08, 210.49, 0.00, 0.00, 0.00, 0.00, 0.00, 0.00, 0.00
620, 340.91, 203.04, 0.00, 0.00, 0.00, 0.00, 0.00, 0.00, 0.00
621, 343.93, 212.14, 0.00, 0.00, 0.00, 0.00, 0.00, 0.00, 0.00
622, 340.98, 204.52, 0.00, 0.00, 0.00, 0.00, 0.00, 0.00, 0.00
623, 340.91, 204.83, 0.00, 0.00, 0.00, 0.00, 0.00, 0.00, 0.00
624, 333.56, 212.01, 0.00, 0.00, 0.00, 0.00, 0.00, 0.00, 0.00
625, 334.45, 199.40, 0.00, 0.00, 0.00, 0.00, 0.00, 0.00, 0.00
626, 332.64, 202.71, 0.00, 0.00, 0.00, 0.00, 0.00, 0.00, 0.00
627, 328.21, 198.24, 0.00, 0.00, 0.00, 0.00, 0.00, 0.00, 0.00
628, 326.42, 195.60, 0.00, 0.00, 0.00, 0.00, 0.00, 0.00, 0.00
629, 320.28, 202.98, 0.00, 0.00, 0.00, 0.00, 0.00, 0.00, 0.00
630, 319.45, 190.73, 0.00, 0.00, 0.00, 0.00, 0.00, 0.00, 0.00
631, 316.34, 197.01, 0.00, 0.00, 0.00, 0.00, 0.00, 0.00, 0.00
632, 315.09, 191.73, 0.00, 0.00, 0.00, 0.00, 0.00, 0.00, 0.00
633, 316.81, 182.99, 0.00, 0.00, 0.00, 0.00, 0.00, 0.00, 0.00
634, 312.72, 194.64, 0.00, 0.00, 0.00, 0.00, 0.00, 0.00, 0.00
635, 314.38, 183.24, 0.00, 0.00, 0.00, 0.00, 0.00, 0.00, 0.00
636, 311.43, 185.14, 0.00, 0.00, 0.00, 0.00, 0.00, 0.00, 0.00
637, 308.57, 184.36, 0.00, 0.00, 0.00, 0.00, 0.00, 0.00, 0.00
638, 309.75, 175.84, 0.00, 0.00, 0.00, 0.00, 0.00, 0.00, 0.00
639, 304.18, 184.65, 0.00, 0.00, 0.00, 0.00, 0.00, 0.00, 0.00
640, 307.20, 173.54, 0.00, 0.00, 0.00, 0.00, 0.00, 0.00, 0.00
641, 298.75, 175.30, 0.00, 0.00, 0.00, 0.00, 0.00, 0.00, 0.00
642, 296.47, 178.41, 0.00, 0.00, 0.00, 0.00, 0.00, 0.00, 0.00
643, 298.75, 170.01, 0.00, 0.00, 0.00, 0.00, 0.00, 0.00, 0.00
644, 291.18, 178.84, 0.00, 0.00, 0.00, 0.00, 0.00, 0.00, 0.00
645, 293.81, 171.12, 0.00, 0.00, 0.00, 0.00, 0.00, 0.00, 0.00
646, 292.49, 172.98, 0.00, 0.00, 0.00, 0.00, 0.00, 0.00, 0.00
647, 291.49, 176.67, 0.00, 0.00, 0.00, 0.00, 0.00, 0.00, 0.00
648, 295.24, 169.18, 0.00, 0.00, 0.00, 0.00, 0.00, 0.00, 0.00
649, 287.20, 176.85, 0.00, 0.00, 0.00, 0.00, 0.00, 0.00, 0.00
650, 289.50, 171.59, 0.00, 0.00, 0.00, 0.00, 0.00, 0.00, 0.00
651, 288.02, 170.14, 0.00, 0.00, 0.00, 0.00, 0.00, 0.00, 0.00
652, 283.20, 175.91, 0.00, 0.00, 0.00, 0.00, 0.00, 0.00, 0.00
653, 284.36, 161.40, 0.00, 0.00, 0.00, 0.00, 0.00, 0.00, 0.00
654, 280.00, 170.43, 0.00, 0.00, 0.00, 0.00, 0.00, 0.00, 0.00
655, 280.31, 166.79, 0.00, 0.00, 0.00, 0.00, 0.00, 0.00, 0.00
656, 276.29, 161.74, 0.00, 0.00, 0.00, 0.00, 0.00, 0.00, 0.00
657, 272.76, 172.87, 0.00, 0.00, 0.00, 0.00, 0.00, 0.00, 0.00
658, 275.80, 163.01, 0.00, 0.00, 0.00, 0.00, 0.00, 0.00, 0.00
659, 268.18, 168.42, 0.00, 0.00, 0.00, 0.00, 0.00, 0.00, 0.00
660, 269.05, 161.40, 0.00, 0.00, 0.00, 0.00, 0.00, 0.00, 0.00
661, 267.77, 151.63, 0.00, 0.00, 0.00, 0.00, 0.00, 0.00, 0.00
662, 260.67, 159.93, 0.00, 0.00, 0.00, 0.00, 0.00, 0.00, 0.00
663, 263.59, 147.45, 0.00, 0.00, 0.00, 0.00, 0.00, 0.00, 0.00
664, 257.47, 147.19, 0.00, 0.00, 0.00, 0.00, 0.00, 0.00, 0.00
665, 258.03, 150.23, 0.00, 0.00, 0.00, 0.00, 0.00, 0.00, 0.00
666, 255.99, 144.75, 0.00, 0.00, 0.00, 0.00, 0.00, 0.00, 0.00
667, 250.34, 147.88, 0.00, 0.00, 0.00, 0.00, 0.00, 0.00, 0.00
668, 252.80, 141.64, 0.00, 0.00, 0.00, 0.00, 0.00, 0.00, 0.00
669, 246.23, 138.58, 0.00, 0.00, 0.00, 0.00, 0.00, 0.00, 0.00
670, 245.74, 141.89, 0.00, 0.00, 0.00, 0.00, 0.00, 0.00, 0.00
671, 248.57, 137.06, 0.00, 0.00, 0.00, 0.00, 0.00, 0.00, 0.00
672, 242.90, 144.91, 0.00, 0.00, 0.00, 0.00, 0.00, 0.00, 0.00
673, 247.14, 144.77, 0.00, 0.00, 0.00, 0.00, 0.00, 0.00, 0.00
674, 243.30, 138.63, 0.00, 0.00, 0.00, 0.00, 0.00, 0.00, 0.00
675, 241.09, 142.11, 0.00, 0.00, 0.00, 0.00, 0.00, 0.00, 0.00
676, 239.48, 136.84, 0.00, 0.00, 0.00, 0.00, 0.00, 0.00, 0.00
677, 235.12, 137.51, 0.00, 0.00, 0.00, 0.00, 0.00, 0.00, 0.00
678, 235.77, 138.42, 0.00, 0.00, 0.00, 0.00, 0.00, 0.00, 0.00
679, 233.46, 134.69, 0.00, 0.00, 0.00, 0.00, 0.00, 0.00, 0.00
680, 235.65, 144.44, 0.00, 0.00, 0.00, 0.00, 0.00, 0.00, 0.00
681, 233.55, 137.15, 0.00, 0.00, 0.00, 0.00, 0.00, 0.00, 0.00
682, 229.13, 135.88, 0.00, 0.00, 0.00, 0.00, 0.00, 0.00, 0.00
683, 228.14, 140.46, 0.00, 0.00, 0.00, 0.00, 0.00, 0.00, 0.00
684, 224.88, 132.10, 0.00, 0.00, 0.00, 0.00, 0.00, 0.00, 0.00
685, 221.86, 138.29, 0.00, 0.00, 0.00, 0.00, 0.00, 0.00, 0.00
686, 219.61, 133.53, 0.00, 0.00, 0.00, 0.00, 0.00, 0.00, 0.00
687, 217.82, 129.89, 0.00, 0.00, 0.00, 0.00, 0.00, 0.00, 0.00
688, 215.18, 138.76, 0.00, 0.00, 0.00, 0.00, 0.00, 0.00, 0.00
689, 211.65, 126.49, 0.00, 0.00, 0.00, 0.00, 0.00, 0.00, 0.00
690, 210.82, 131.14, 0.00, 0.00, 0.00, 0.00, 0.00, 0.00, 0.00
691, 207.92, 129.71, 0.00, 0.00, 0.00, 0.00, 0.00, 0.00, 0.00
692, 208.23, 119.40, 0.00, 0.00, 0.00, 0.00, 0.00, 0.00, 0.00
693, 207.85, 131.70, 0.00, 0.00, 0.00, 0.00, 0.00, 0.00, 0.00
694, 206.17, 119.81, 0.00, 0.00, 0.00, 0.00, 0.00, 0.00, 0.00
695, 205.66, 123.05, 0.00, 0.00, 0.00, 0.00, 0.00, 0.00, 0.00
696, 203.24, 127.45, 0.00, 0.00, 0.00, 0.00, 0.00, 0.00, 0.00
697, 205.10, 115.98, 0.00, 0.00, 0.00, 0.00, 0.00, 0.00, 0.00
698, 203.00, 129.19, 0.00, 0.00, 0.00, 0.00, 0.00, 0.00, 0.00
699, 200.50, 118.33, 0.00, 0.00, 0.00, 0.00, 0.00, 0.00, 0.00
700, 199.27, 116.70, 0.00, 0.00, 0.00, 0.00, 0.00, 0.00, 0.00
701, 196.00, 124.01, 0.00, 0.00, 0.00, 0.00, 0.00, 0.00, 0.00
702, 194.95, 108.99, 0.00, 0.00, 0.00, 0.00, 0.00, 0.00, 0.00
703, 191.55, 121.26, 0.00, 0.00, 0.00, 0.00, 0.00, 0.00, 0.00
704, 191.91, 113.57, 0.00, 0.00, 0.00, 0.00, 0.00, 0.00, 0.00
705, 190.91, 109.84, 0.00, 0.00, 0.00, 0.00, 0.00, 0.00, 0.00
706, 187.29, 120.03, 0.00, 0.00, 0.00, 0.00, 0.00, 0.00, 0.00
707, 188.72, 105.50, 0.00, 0.00, 0.00, 0.00, 0.00, 0.00, 0.00
708, 182.66, 113.97, 0.00, 0.00, 0.00, 0.00, 0.00, 0.00, 0.00
709, 181.70, 105.92, 0.00, 0.00, 0.00, 0.00, 0.00, 0.00, 0.00
710, 181.03, 98.95, 0.00, 0.00, 0.00, 0.00, 0.00, 0.00, 0.00
711, 174.03, 110.17, 0.00, 0.00, 0.00, 0.00, 0.00, 0.00, 0.00
712, 176.00, 92.54, 0.00, 0.00, 0.00, 0.00, 0.00, 0.00, 0.00
713, 170.14, 102.44, 0.00, 0.00, 0.00, 0.00, 0.00, 0.00, 0.00
714, 167.68, 102.44, 0.00, 0.00, 0.00, 0.00, 0.00, 0.00, 0.00
715, 170.05, 95.53, 0.00, 0.00, 0.00, 0.00, 0.00, 0.00, 0.00
716, 163.99, 106.89, 0.00, 0.00, 0.00, 0.00, 0.00, 0.00, 0.00
717, 166.72, 89.43, 0.00, 0.00, 0.00, 0.00, 0.00, 0.00, 0.00
718, 163.32, 97.45, 0.00, 0.00, 0.00, 0.00, 0.00, 0.00, 0.00
719, 162.56, 100.14, 0.00, 0.00, 0.00, 0.00, 0.00, 0.00, 0.00
720, 165.76, 87.28, 0.00, 0.00, 0.00, 0.00, 0.00, 0.00, 0.00
721, 158.36, 99.64, 0.00, 0.00, 0.00, 0.00, 0.00, 0.00, 0.00
722, 160.06, 87.73, 0.00, 0.00, 0.00, 0.00, 0.00, 0.00, 0.00
723, 156.69, 88.51, 0.00, 0.00, 0.00, 0.00, 0.00, 0.00, 0.00
724, 153.24, 91.42, 0.00, 0.00, 0.00, 0.00, 0.00, 0.00, 0.00
725, 154.41, 79.46, 0.00, 0.00, 0.00, 0.00, 0.00, 0.00, 0.00
726, 146.94, 91.26, 0.00, 0.00, 0.00, 0.00, 0.00, 0.00, 0.00
727, 151.68, 84.22, 0.00, 0.00, 0.00, 0.00, 0.00, 0.00, 0.00
728, 149.67, 82.43, 0.00, 0.00, 0.00, 0.00, 0.00, 0.00, 0.00
729, 150.36, 67.61, 0.00, 0.00, 0.00, 0.00, 0.00, 0.00, 0.00
730, 150.76, 28.48, 0.00, 0.00, 0.00, 0.00, 0.00, 0.00, 0.00
731, 148.55, 45.66, 0.00, 0.00, 0.00, 0.00, 0.00, 0.00, 0.00
732, 138.51, 101.07, 0.00, 0.00, 0.00, 0.00, 0.00, 0.00, 0.00
733, 138.07, 100.65, 0.00, 0.00, 0.00, 0.00, 0.00, 0.00, 0.00
734, 143.19, 69.36, 0.00, 0.00, 0.00, 0.00, 0.00, 0.00, 0.00
735, 138.89, 75.28, 0.00, 0.00, 0.00, 0.00, 0.00, 0.00, 0.00
736, 140.44, 62.00, 0.00, 0.00, 0.00, 0.00, 0.00, 0.00, 0.00
737, 133.02, 71.53, 0.00, 0.00, 0.00, 0.00, 0.00, 0.00, 0.00
738, 131.25, 74.83, 0.00, 0.00, 0.00, 0.00, 0.00, 0.00, 0.00
739, 132.57, 64.22, 0.00, 0.00, 0.00, 0.00, 0.00, 0.00, 0.00
740, 125.77, 84.47, 0.00, 0.00, 0.00, 0.00, 0.00, 0.00, 0.00
741, 132.52, 65.20, 0.00, 0.00, 0.00, 0.00, 0.00, 0.00, 0.00
742, 128.86, 60.71, 0.00, 0.00, 0.00, 0.00, 0.00, 0.00, 0.00
743, 128.34, 68.64, 0.00, 0.00, 0.00, 0.00, 0.00, 0.00, 0.00
744, 130.58, 61.94, 0.00, 0.00, 0.00, 0.00, 0.00, 0.00, 0.00
745, 120.95, 85.36, 0.00, 0.00, 0.00, 0.00, 0.00, 0.00, 0.00
746, 126.78, 67.64, 0.00, 0.00, 0.00, 0.00, 0.00, 0.00, 0.00
747, 122.35, 56.19, 0.00, 0.00, 0.00, 0.00, 0.00, 0.00, 0.00
748, 118.13, 64.53, 0.00, 0.00, 0.00, 0.00, 0.00, 0.00, 0.00
749, 122.02, 57.98, 0.00, 0.00, 0.00, 0.00, 0.00, 0.00, 0.00
750, 112.61, 77.16, 0.00, 0.00, 0.00, 0.00, 0.00, 0.00, 0.00
751, 118.91, 64.08, 0.00, 0.00, 0.00, 0.00, 0.00, 0.00, 0.00
752, 116.68, 52.44, 0.00, 0.00, 0.00, 0.00, 0.00, 0.00, 0.00
753, 113.10, 63.84, 0.00, 0.00, 0.00, 0.00, 0.00, 0.00, 0.00
754, 117.73, 55.01, 0.00, 0.00, 0.00, 0.00, 0.00, 0.00, 0.00
755, 107.13, 73.56, 0.00, 0.00, 0.00, 0.00, 0.00, 0.00, 0.00
756, 112.05, 64.19, 0.00, 0.00, 0.00, 0.00, 0.00, 0.00, 0.00
757, 112.41, 47.63, 0.00, 0.00, 0.00, 0.00, 0.00, 0.00, 0.00
758, 104.03, 60.15, 0.00, 0.00, 0.00, 0.00, 0.00, 0.00, 0.00
759, 106.19, 50.43, 0.00, 0.00, 0.00, 0.00, 0.00, 0.00, 0.00
760, 97.10, 59.01, 0.00, 0.00, 0.00, 0.00, 0.00, 0.00, 0.00
761, 102.08, 57.96, 0.00, 0.00, 0.00, 0.00, 0.00, 0.00, 0.00
762, 101.66, 42.31, 0.00, 0.00, 0.00, 0.00, 0.00, 0.00, 0.00
763, 94.44, 53.06, 0.00, 0.00, 0.00, 0.00, 0.00, 0.00, 0.00
764, 98.48, 45.69, 0.00, 0.00, 0.00, 0.00, 0.00, 0.00, 0.00
765, 89.92, 51.54, 0.00, 0.00, 0.00, 0.00, 0.00, 0.00, 0.00
766, 91.08, 53.06, 0.00, 0.00, 0.00, 0.00, 0.00, 0.00, 0.00
767, 89.99, 38.65, 0.00, 0.00, 0.00, 0.00, 0.00, 0.00, 0.00
768, 84.18, 47.41, 0.00, 0.00, 0.00, 0.00, 0.00, 0.00, 0.00
769, 89.94, 42.20, 0.00, 0.00, 0.00, 0.00, 0.00, 0.00, 0.00
770, 83.22, 41.64, 0.00, 0.00, 0.00, 0.00, 0.00, 0.00, 0.00
771, 82.75, 46.42, 0.00, 0.00, 0.00, 0.00, 0.00, 0.00, 0.00
772, 82.99, 31.54, 0.00, 0.00, 0.00, 0.00, 0.00, 0.00, 0.00
773, 78.79, 39.32, 0.00, 0.00, 0.00, 0.00, 0.00, 0.00, 0.00
774, 81.36, 43.74, 0.00, 0.00, 0.00, 0.00, 0.00, 0.00, 0.00
775, 77.38, 38.33, 0.00, 0.00, 0.00, 0.00, 0.00, 0.00, 0.00
776, 74.05, 46.25, 0.00, 0.00, 0.00, 0.00, 0.00, 0.00, 0.00
777, 74.68, 36.70, 0.00, 0.00, 0.00, 0.00, 0.00, 0.00, 0.00
778, 71.01, 36.61, 0.00, 0.00, 0.00, 0.00, 0.00, 0.00, 0.00
779, 71.79, 42.60, 0.00, 0.00, 0.00, 0.00, 0.00, 0.00, 0.00
780, 72.53, 36.39, 0.00, 0.00, 0.00, 0.00, 0.00, 0.00, 0.00
781, 72.64, 49.17, 0.00, 0.00, 0.00, 0.00, 0.00, 0.00, 0.00
782, 76.15, 43.41, 0.00, 0.00, 0.00, 0.00, 0.00, 0.00, 0.00
783, 70.81, 37.57, 0.00, 0.00, 0.00, 0.00, 0.00, 0.00, 0.00
784, 68.58, 45.35, 0.00, 0.00, 0.00, 0.00, 0.00, 0.00, 0.00
785, 66.41, 29.41, 0.00, 0.00, 0.00, 0.00, 0.00, 0.00, 0.00
786, 62.27, 33.62, 0.00, 0.00, 0.00, 0.00, 0.00, 0.00, 0.00
787, 63.48, 29.33, 0.00, 0.00, 0.00, 0.00, 0.00, 0.00, 0.00
788, 62.34, 21.30, 0.00, 0.00, 0.00, 0.00, 0.00, 0.00, 0.00
789, 61.15, 34.47, 0.00, 0.00, 0.00, 0.00, 0.00, 0.00, 0.00
790, 61.44, 22.11, 0.00, 0.00, 0.00, 0.00, 0.00, 0.00, 0.00
791, 55.92, 25.64, 0.00, 0.00, 0.00, 0.00, 0.00, 0.00, 0.00
792, 57.11, 29.01, 0.00, 0.00, 0.00, 0.00, 0.00, 0.00, 0.00
793, 55.75, 16.36, 0.00, 0.00, 0.00, 0.00, 0.00, 0.00, 0.00
794, 48.91, 27.67, 0.00, 0.00, 0.00, 0.00, 0.00, 0.00, 0.00
795, 50.18, 17.81, 0.00, 0.00, 0.00, 0.00, 0.00, 0.00, 0.00
796, 48.28, 20.14, 0.00, 0.00, 0.00, 0.00, 0.00, 0.00, 0.00
797, 46.00, 28.01, 0.00, 0.00, 0.00, 0.00, 0.00, 0.00, 0.00
798, 46.69, 12.94, 0.00, 0.00, 0.00, 0.00, 0.00, 0.00, 0.00
799, 45.26, 25.91, 0.00, 0.00, 0.00, 0.00, 0.00, 0.00, 0.00
800, 45.31, 18.26, 0.00, 0.00, 0.00, 0.00, 0.00, 0.00, 0.00
801, 44.59, 14.69, 0.00, 0.00, 0.00, 0.00, 0.00, 0.00, 0.00
802, 39.79, 25.57, 0.00, 0.00, 0.00, 0.00, 0.00, 0.00, 0.00
803, 42.58, 10.01, 0.00, 0.00, 0.00, 0.00, 0.00, 0.00, 0.00
804, 39.07, 22.96, 0.00, 0.00, 0.00, 0.00, 0.00, 0.00, 0.00
805, 38.53, 18.06, 0.00, 0.00, 0.00, 0.00, 0.00, 0.00, 0.00
806, 38.91, 7.78, 0.00, 0.00, 0.00, 0.00, 0.00, 0.00, 0.00
807, 32.03, 21.68, 0.00, 0.00, 0.00, 0.00, 0.00, 0.00, 0.00
808, 35.65, 7.06, 0.00, 0.00, 0.00, 0.00, 0.00, 0.00, 0.00
809, 33.82, 15.15, 0.00, 0.00, 0.00, 0.00, 0.00, 0.00, 0.00
810, 32.41, 15.40, 0.00, 0.00, 0.00, 0.00, 0.00, 0.00, 0.00
811, 37.15, 4.98, 0.00, 0.00, 0.00, 0.00, 0.00, 0.00, 0.00
812, 32.39, 23.42, 0.00, 0.00, 0.00, 0.00, 0.00, 0.00, 0.00
813, 34.44, 7.00, 0.00, 0.00, 0.00, 0.00, 0.00, 0.00, 0.00
814, 29.86, 11.67, 0.00, 0.00, 0.00, 0.00, 0.00, 0.00, 0.00
815, 27.45, 19.98, 0.00, 0.00, 0.00, 0.00, 0.00, 0.00, 0.00
816, 29.39, 6.75, 0.00, 0.00, 0.00, 0.00, 0.00, 0.00, 0.00
817, 20.07, 15.89, 0.00, 0.00, 0.00, 0.00, 0.00, 0.00, 0.00
818, 21.68, 0.42, 0.00, 0.00, 0.00, 0.00, 0.00, 0.00, 0.00
819, 19.00, 2.48, 0.00, 0.00, 0.00, 0.00, 0.00, 0.00, 0.00
820, 16.21, 9.72, 0.00, 0.00, 0.00, 0.00, 0.00, 0.00, 0.00
821, 20.34, -5.48, 0.00, 0.00, 0.00, 0.00, 0.00, 0.00, 0.00
822, 14.26, 9.12, 0.00, 0.00, 0.00, 0.00, 0.00, 0.00, 0.00
823, 19.60, 4.56, 0.00, 0.00, 0.00, 0.00, 0.00, 0.00, 0.00
824, 19.89, 3.46, 0.00, 0.00, 0.00, 0.00, 0.00, 0.00, 0.00
825, 14.73, 13.05, 0.00, 0.00, 0.00, 0.00, 0.00, 0.00, 0.00
826, 20.23, -0.80, 0.00, 0.00, 0.00, 0.00, 0.00, 0.00, 0.00
827, 15.65, 10.93, 0.00, 0.00, 0.00, 0.00, 0.00, 0.00, 0.00
828, 13.75, 7.80, 0.00, 0.00, 0.00, 0.00, 0.00, 0.00, 0.00
829, 12.45, -3.22, 0.00, 0.00, 0.00, 0.00, 0.00, 0.00, 0.00
830, 3.31, 4.87, 0.00, 0.00, 0.00, 0.00, 0.00, 0.00, 0.00
831, 7.09, -10.48, 0.00, 0.00, 0.00, 0.00, 0.00, 0.00, 0.00
832, 0.18, -5.65, 0.00, 0.00, 0.00, 0.00, 0.00, 0.00, 0.00
833, -0.94, 0.07, 0.00, 0.00, 0.00, 0.00, 0.00, 0.00, 0.00
834, 3.51, -8.61, 0.00, 0.00, 0.00, 0.00, 0.00, 0.00, 0.00
835, -5.01, 1.43, 0.00, 0.00, 0.00, 0.00, 0.00, 0.00, 0.00
836, -0.20, -7.78, 0.00, 0.00, 0.00, 0.00, 0.00, 0.00, 0.00
837, -7.51, -8.92, 0.00, 0.00, 0.00, 0.00, 0.00, 0.00, 0.00
838, -7.13, -2.46, 0.00, 0.00, 0.00, 0.00, 0.00, 0.00, 0.00
839, -2.70, -14.91, 0.00, 0.00, 0.00, 0.00, 0.00, 0.00, 0.00
840, -11.58, -8.63, 0.00, 0.00, 0.00, 0.00, 0.00, 0.00, 0.00
841, -7.00, -13.57, 0.00, 0.00, 0.00, 0.00, 0.00, 0.00, 0.00
842, -10.75, -17.23, 0.00, 0.00, 0.00, 0.00, 0.00, 0.00, 0.00
843, -12.76, -9.01, 0.00, 0.00, 0.00, 0.00, 0.00, 0.00, 0.00
844, -11.65, -19.58, 0.00, 0.00, 0.00, 0.00, 0.00, 0.00, 0.00
845, -17.77, -13.28, 0.00, 0.00, 0.00, 0.00, 0.00, 0.00, 0.00
846, -13.63, -9.92, 0.00, 0.00, 0.00, 0.00, 0.00, 0.00, 0.00
847, -15.87, -18.46, 0.00, 0.00, 0.00, 0.00, 0.00, 0.00, 0.00
848, -19.11, -10.53, 0.00, 0.00, 0.00, 0.00, 0.00, 0.00, 0.00
849, -15.62, -14.84, 0.00, 0.00, 0.00, 0.00, 0.00, 0.00, 0.00
850, -16.18, -11.71, 0.00, 0.00, 0.00, 0.00, 0.00, 0.00, 0.00
851, -12.72, -5.43, 0.00, 0.00, 0.00, 0.00, 0.00, 0.00, 0.00
852, -10.91, -11.27, 0.00, 0.00, 0.00, 0.00, 0.00, 0.00, 0.00
853, -13.55, -0.09, 0.00, 0.00, 0.00, 0.00, 0.00, 0.00, 0.00
854, -7.93, 0.69, 0.00, 0.00, 0.00, 0.00, 0.00, 0.00, 0.00
855, -12.87, -6.24, 0.00, 0.00, 0.00, 0.00, 0.00, 0.00, 0.00
856, -10.77, 8.05, 0.00, 0.00, 0.00, 0.00, 0.00, 0.00, 0.00
857, -7.96, 14.26, 0.00, 0.00, 0.00, 0.00, 0.00, 0.00, 0.00
858, -8.31, 29.03, 0.00, 0.00, 0.00, 0.00, 0.00, 0.00, 0.00
859, -3.62, 39.70, 0.00, 0.00, 0.00, 0.00, 0.00, 0.00, 0.00
860, -3.58, 20.70, 0.00, 0.00, 0.00, 0.00, 0.00, 0.00, 0.00
861, -0.16, 49.69, 0.00, 0.00, 0.00, 0.00, 0.00, 0.00, 0.00
862, 1.59, 52.91, 0.00, 0.00, 0.00, 0.00, 0.00, 0.00, 0.00
863, -3.20, 31.16, 0.00, 0.00, 0.00, 0.00, 0.00, 0.00, 0.00
864, 5.74, 60.75, 0.00, 0.00, 0.00, 0.00, 0.00, 0.00, 0.00
865, 10.53, 75.68, 0.00, 0.00, 0.00, 0.00, 0.00, 0.00, 0.00
866, 9.75, 92.47, 0.00, 0.00, 0.00, 0.00, 0.00, 0.00, 0.00
867, 18.60, 86.14, 0.00, 0.00, 0.00, 0.00, 0.00, 0.00, 0.00
868, 18.46, 87.35, 0.00, 0.00, 0.00, 0.00, 0.00, 0.00, 0.00
869, 26.89, 132.34, 0.00, 0.00, 0.00, 0.00, 0.00, 0.00, 0.00
870, 29.64, 115.58, 0.00, 0.00, 0.00, 0.00, 0.00, 0.00, 0.00
871, 34.15, 149.60, 0.00, 0.00, 0.00, 0.00, 0.00, 0.00, 0.00
872, 43.41, 164.98, 0.00, 0.00, 0.00, 0.00, 0.00, 0.00, 0.00
873, 51.03, 170.16, 0.00, 0.00, 0.00, 0.00, 0.00, 0.00, 0.00
874, 53.53, 216.14, 0.00, 0.00, 0.00, 0.00, 0.00, 0.00, 0.00
875, 61.18, 206.95, 0.00, 0.00, 0.00, 0.00, 0.00, 0.00, 0.00
876, 56.75, 206.73, 0.00, 0.00, 0.00, 0.00, 0.00, 0.00, 0.00
877, 73.40, 230.18, 0.00, 0.00, 0.00, 0.00, 0.00, 0.00, 0.00
878, 70.77, 226.65, 0.00, 0.00, 0.00, 0.00, 0.00, 0.00, 0.00
879, 72.46, 249.58, 0.00, 0.00, 0.00, 0.00, 0.00, 0.00, 0.00
880, 77.92, 245.09, 0.00, 0.00, 0.00, 0.00, 0.00, 0.00, 0.00
881, 82.52, 268.33, 0.00, 0.00, 0.00, 0.00, 0.00, 0.00, 0.00
882, 81.36, 280.11, 0.00, 0.00, 0.00, 0.00, 0.00, 0.00, 0.00
883, 87.62, 262.48, 0.00, 0.00, 0.00, 0.00, 0.00, 0.00, 0.00
884, 83.51, 278.88, 0.00, 0.00, 0.00, 0.00, 0.00, 0.00, 0.00
885, 87.73, 264.35, 0.00, 0.00, 0.00, 0.00, 0.00, 0.00, 0.00
886, 86.03, 267.73, 0.00, 0.00, 0.00, 0.00, 0.00, 0.00, 0.00
887, 87.93, 276.65, 0.00, 0.00, 0.00, 0.00, 0.00, 0.00, 0.00
888, 90.93, 260.13, 0.00, 0.00, 0.00, 0.00, 0.00, 0.00, 0.00
889, 82.25, 272.71, 0.00, 0.00, 0.00, 0.00, 0.00, 0.00, 0.00
890, 87.91, 262.39, 0.00, 0.00, 0.00, 0.00, 0.00, 0.00, 0.00
891, 87.51, 259.70, 0.00, 0.00, 0.00, 0.00, 0.00, 0.00, 0.00
892, 81.81, 264.35, 0.00, 0.00, 0.00, 0.00, 0.00, 0.00, 0.00
893, 81.58, 245.13, 0.00, 0.00, 0.00, 0.00, 0.00, 0.00, 0.00
894, 79.71, 256.64, 0.00, 0.00, 0.00, 0.00, 0.00, 0.00, 0.00
895, 88.04, 248.22, 0.00, 0.00, 0.00, 0.00, 0.00, 0.00, 0.00
896, 87.33, 246.32, 0.00, 0.00, 0.00, 0.00, 0.00, 0.00, 0.00
897, 83.82, 256.58, 0.00, 0.00, 0.00, 0.00, 0.00, 0.00, 0.00
898, 87.37, 238.02, 0.00, 0.00, 0.00, 0.00, 0.00, 0.00, 0.00
899, 85.76, 243.12, 0.00, 0.00, 0.00, 0.00, 0.00, 0.00, 0.00
900, 82.08, 231.45, 0.00, 0.00, 0.00, 0.00, 0.00, 0.00, 0.00
901, 84.60, 224.32, 0.00, 0.00, 0.00, 0.00, 0.00, 0.00, 0.00
902, 77.63, 232.30, 0.00, 0.00, 0.00, 0.00, 0.00, 0.00, 0.00
903, 89.74, 218.11, 0.00, 0.00, 0.00, 0.00, 0.00, 0.00, 0.00
904, 85.12, 218.60, 0.00, 0.00, 0.00, 0.00, 0.00, 0.00, 0.00
905, 73.56, 211.36, 0.00, 0.00, 0.00, 0.00, 0.00, 0.00, 0.00
906, 73.36, 199.98, 0.00, 0.00, 0.00, 0.00, 0.00, 0.00, 0.00
907, 67.37, 205.32, 0.00, 0.00, 0.00, 0.00, 0.00, 0.00, 0.00
908, 70.18, 198.06, 0.00, 0.00, 0.00, 0.00, 0.00, 0.00, 0.00
909, 70.54, 201.61, 0.00, 0.00, 0.00, 0.00, 0.00, 0.00, 0.00
910, 74.45, 200.56, 0.00, 0.00, 0.00, 0.00, 0.00, 0.00, 0.00
911, 72.46, 191.15, 0.00, 0.00, 0.00, 0.00, 0.00, 0.00, 0.00
912, 69.92, 192.49, 0.00, 0.00, 0.00, 0.00, 0.00, 0.00, 0.00
913, 68.04, 181.54, 0.00, 0.00, 0.00, 0.00, 0.00, 0.00, 0.00
914, 62.67, 174.95, 0.00, 0.00, 0.00, 0.00, 0.00, 0.00, 0.00
915, 67.08, 179.62, 0.00, 0.00, 0.00, 0.00, 0.00, 0.00, 0.00
916, 68.51, 166.21, 0.00, 0.00, 0.00, 0.00, 0.00, 0.00, 0.00
917, 71.88, 167.66, 0.00, 0.00, 0.00, 0.00, 0.00, 0.00, 0.00
918, 70.50, 167.48, 0.00, 0.00, 0.00, 0.00, 0.00, 0.00, 0.00
919, 61.62, 156.91, 0.00, 0.00, 0.00, 0.00, 0.00, 0.00, 0.00
920, 54.00, 150.38, 0.00, 0.00, 0.00, 0.00, 0.00, 0.00, 0.00
921, 55.14, 142.40, 0.00, 0.00, 0.00, 0.00, 0.00, 0.00, 0.00
922, 46.63, 133.31, 0.00, 0.00, 0.00, 0.00, 0.00, 0.00, 0.00
923, 46.00, 134.47, 0.00, 0.00, 0.00, 0.00, 0.00, 0.00, 0.00
924, 40.72, 124.50, 0.00, 0.00, 0.00, 0.00, 0.00, 0.00, 0.00
925, 39.99, 122.85, 0.00, 0.00, 0.00, 0.00, 0.00, 0.00, 0.00
926, 39.90, 121.59, 0.00, 0.00, 0.00, 0.00, 0.00, 0.00, 0.00
927, 31.27, 111.38, 0.00, 0.00, 0.00, 0.00, 0.00, 0.00, 0.00
928, 31.61, 112.92, 0.00, 0.00, 0.00, 0.00, 0.00, 0.00, 0.00
929, 41.46, 114.33, 0.00, 0.00, 0.00, 0.00, 0.00, 0.00, 0.00
930, 27.47, 106.48, 0.00, 0.00, 0.00, 0.00, 0.00, 0.00, 0.00
931, 24.48, 106.35, 0.00, 0.00, 0.00, 0.00, 0.00, 0.00, 0.00
932, 20.00, 90.84, 0.00, 0.00, 0.00, 0.00, 0.00, 0.00, 0.00
933, 16.23, 86.14, 0.00, 0.00, 0.00, 0.00, 0.00, 0.00, 0.00
934, 14.51, 78.63, 0.00, 0.00, 0.00, 0.00, 0.00, 0.00, 0.00
935, 4.67, 62.16, 0.00, 0.00, 0.00, 0.00, 0.00, 0.00, 0.00
936, 0.40, 58.11, 0.00, 0.00, 0.00, 0.00, 0.00, 0.00, 0.00
937, -11.82, 39.09, 0.00, 0.00, 0.00, 0.00, 0.00, 0.00, 0.00
938, -22.46, 31.31, 0.00, 0.00, 0.00, 0.00, 0.00, 0.00, 0.00
939, -36.66, 15.07, 0.00, 0.00, 0.00, 0.00, 0.00, 0.00, 0.00
940, -44.12, -7.62, 0.00, 0.00, 0.00, 0.00, 0.00, 0.00, 0.00
941, -54.43, -5.83, 0.00, 0.00, 0.00, 0.00, 0.00, 0.00, 0.00
942, -53.29, -23.63, 0.00, 0.00, 0.00, 0.00, 0.00, 0.00, 0.00
943, -64.35, -36.48, 0.00, 0.00, 0.00, 0.00, 0.00, 0.00, 0.00
944, -73.38, -43.14, 0.00, 0.00, 0.00, 0.00, 0.00, 0.00, 0.00
945, -73.69, -67.61, 0.00, 0.00, 0.00, 0.00, 0.00, 0.00, 0.00
946, -85.76, -59.55, 0.00, 0.00, 0.00, 0.00, 0.00, 0.00, 0.00
947, -90.93, -83.44, 0.00, 0.00, 0.00, 0.00, 0.00, 0.00, 0.00
948, -103.67, -98.97, 0.00, 0.00, 0.00, 0.00, 0.00, 0.00, 0.00
949, -104.00, -93.45, 0.00, 0.00, 0.00, 0.00, 0.00, 0.00, 0.00
950, -107.38, -116.97, 0.00, 0.00, 0.00, 0.00, 0.00, 0.00, 0.00
951, -110.22, -108.92, 0.00, 0.00, 0.00, 0.00, 0.00, 0.00, 0.00
952, -114.62, -124.70, 0.00, 0.00, 0.00, 0.00, 0.00, 0.00, 0.00
953, -124.25, -134.83, 0.00, 0.00, 0.00, 0.00, 0.00, 0.00, 0.00
954, -131.81, -123.92, 0.00, 0.00, 0.00, 0.00, 0.00, 0.00, 0.00
955, -124.37, -142.96, 0.00, 0.00, 0.00, 0.00, 0.00, 0.00, 0.00
956, -140.53, -144.06, 0.00, 0.00, 0.00, 0.00, 0.00, 0.00, 0.00
957, -142.54, -148.71, 0.00, 0.00, 0.00, 0.00, 0.00, 0.00, 0.00
958, -136.99, -158.27, 0.00, 0.00, 0.00, 0.00, 0.00, 0.00, 0.00
959, -140.19, -141.75, 0.00, 0.00, 0.00, 0.00, 0.00, 0.00, 0.00
960, -140.37, -164.67, 0.00, 0.00, 0.00, 0.00, 0.00, 0.00, 0.00
961, -145.98, -158.54, 0.00, 0.00, 0.00, 0.00, 0.00, 0.00, 0.00
962, -140.66, -156.35, 0.00, 0.00, 0.00, 0.00, 0.00, 0.00, 0.00
963, -145.17, -173.58, 0.00, 0.00, 0.00, 0.00, 0.00, 0.00, 0.00
964, -152.57, -158.30, 0.00, 0.00, 0.00, 0.00, 0.00, 0.00, 0.00
965, -149.53, -173.76, 0.00, 0.00, 0.00, 0.00, 0.00, 0.00, 0.00
966, -155.03, -167.41, 0.00, 0.00, 0.00, 0.00, 0.00, 0.00, 0.00
967, -155.19, -163.88, 0.00, 0.00, 0.00, 0.00, 0.00, 0.00, 0.00
968, -148.84, -180.96, 0.00, 0.00, 0.00, 0.00, 0.00, 0.00, 0.00
969, -165.56, -168.67, 0.00, 0.00, 0.00, 0.00, 0.00, 0.00, 0.00
970, -160.75, -181.36, 0.00, 0.00, 0.00, 0.00, 0.00, 0.00, 0.00
971, -164.31, -182.12, 0.00, 0.00, 0.00, 0.00, 0.00, 0.00, 0.00
972, -166.92, -174.48, 0.00, 0.00, 0.00, 0.00, 0.00, 0.00, 0.00
973, -164.60, -189.70, 0.00, 0.00, 0.00, 0.00, 0.00, 0.00, 0.00
974, -173.81, -177.74, 0.00, 0.00, 0.00, 0.00, 0.00, 0.00, 0.00
975, -167.91, -190.39, 0.00, 0.00, 0.00, 0.00, 0.00, 0.00, 0.00
976, -177.34, -190.68, 0.00, 0.00, 0.00, 0.00, 0.00, 0.00, 0.00
977, -179.73, -184.36, 0.00, 0.00, 0.00, 0.00, 0.00, 0.00, 0.00
978, -174.59, -201.41, 0.00, 0.00, 0.00, 0.00, 0.00, 0.00, 0.00
979, -186.55, -189.07, 0.00, 0.00, 0.00, 0.00, 0.00, 0.00, 0.00
980, -179.04, -196.23, 0.00, 0.00, 0.00, 0.00, 0.00, 0.00, 0.00
981, -182.23, -197.54, 0.00, 0.00, 0.00, 0.00, 0.00, 0.00, 0.00
982, -184.07, -188.43, 0.00, 0.00, 0.00, 0.00, 0.00, 0.00, 0.00
983, -178.37, -197.86, 0.00, 0.00, 0.00, 0.00, 0.00, 0.00, 0.00
984, -183.22, -188.22, 0.00, 0.00, 0.00, 0.00, 0.00, 0.00, 0.00
985, -179.35, -192.20, 0.00, 0.00, 0.00, 0.00, 0.00, 0.00, 0.00
986, -181.32, -191.80, 0.00, 0.00, 0.00, 0.00, 0.00, 0.00, 0.00
987, -182.10, -186.68, 0.00, 0.00, 0.00, 0.00, 0.00, 0.00, 0.00
988, -183.78, -194.37, 0.00, 0.00, 0.00, 0.00, 0.00, 0.00, 0.00
989, -183.08, -183.73, 0.00, 0.00, 0.00, 0.00, 0.00, 0.00, 0.00
990, -181.61, -187.26, 0.00, 0.00, 0.00, 0.00, 0.00, 0.00, 0.00
991, -183.37, -189.54, 0.00, 0.00, 0.00, 0.00, 0.00, 0.00, 0.00
992, -185.72, -184.27, 0.00, 0.00, 0.00, 0.00, 0.00, 0.00, 0.00
993, -181.61, -184.40, 0.00, 0.00, 0.00, 0.00, 0.00, 0.00, 0.00
994, -186.12, -188.51, 0.00, 0.00, 0.00, 0.00, 0.00, 0.00, 0.00
995, -187.82, -192.22, 0.00, 0.00, 0.00, 0.00, 0.00, 0.00, 0.00
996, -186.75, -189.05, 0.00, 0.00, 0.00, 0.00, 0.00, 0.00, 0.00
997, -190.62, -188.54, 0.00, 0.00, 0.00, 0.00, 0.00, 0.00, 0.00
998, -191.31, -192.74, 0.00, 0.00, 0.00, 0.00, 0.00, 0.00, 0.00
999, -190.79, -189.25, 0.00, 0.00, 0.00, 0.00, 0.00, 0.00, 0.00
1000, -188.81, -187.60, 0.00, 0.00, 0.00, 0.00, 0.00, 0.00, 0.00
1001, -194.50, -190.93, 0.00, 0.00, 0.00, 0.00, 0.00, 0.00, 0.00
1002, -196.00, -197.21, 0.00, 0.00, 0.00, 0.00, 0.00, 0.00, 0.00
1003, -193.66, -191.62, 0.00, 0.00, 0.00, 0.00, 0.00, 0.00, 0.00
1004, -197.63, -193.50, 0.00, 0.00, 0.00, 0.00, 0.00, 0.00, 0.00
1005, -199.69, -200.96, 0.00, 0.00, 0.00, 0.00, 0.00, 0.00, 0.00
1006, -198.17, -190.33, 0.00, 0.00, 0.00, 0.00, 0.00, 0.00, 0.00
1007, -195.29, -196.29, 0.00, 0.00, 0.00, 0.00, 0.00, 0.00, 0.00
1008, -199.33, -191.53, 0.00, 0.00, 0.00, 0.00, 0.00, 0.00, 0.00
1009, -201.75, -196.14, 0.00, 0.00, 0.00, 0.00, 0.00, 0.00, 0.00
1010, -201.93, -195.47, 0.00, 0.00, 0.00, 0.00, 0.00, 0.00, 0.00
1011, -200.41, -186.50, 0.00, 0.00, 0.00, 0.00, 0.00, 0.00, 0.00
1012, -204.25, -202.86, 0.00, 0.00, 0.00, 0.00, 0.00, 0.00, 0.00
1013, -208.27, -197.46, 0.00, 0.00, 0.00, 0.00, 0.00, 0.00, 0.00
1014, -203.80, -195.09, 0.00, 0.00, 0.00, 0.00, 0.00, 0.00, 0.00
1015, -203.07, -203.74, 0.00, 0.00, 0.00, 0.00, 0.00, 0.00, 0.00
1016, -207.58, -189.19, 0.00, 0.00, 0.00, 0.00, 0.00, 0.00, 0.00
1017, -204.36, -202.37, 0.00, 0.00, 0.00, 0.00, 0.00, 0.00, 0.00
1018, -206.84, -197.77, 0.00, 0.00, 0.00, 0.00, 0.00, 0.00, 0.00
1019, -204.34, -187.98, 0.00, 0.00, 0.00, 0.00, 0.00, 0.00, 0.00
1020, -204.27, -201.12, 0.00, 0.00, 0.00, 0.00, 0.00, 0.00, 0.00
1021, -213.91, -191.58, 0.00, 0.00, 0.00, 0.00, 0.00, 0.00, 0.00
1022, -208.30, -200.03, 0.00, 0.00, 0.00, 0.00, 0.00, 0.00, 0.00
1023, -211.43, -195.13, 0.00, 0.00, 0.00, 0.00, 0.00, 0.00, 0.00
1024, -220.50, -196.56, 0.00, 0.00, 0.00, 0.00, 0.00, 0.00, 0.00
1025, -208.59, -203.96, 0.00, 0.00, 0.00, 0.00, 0.00, 0.00, 0.00
1026, -213.24, -188.78, 0.00, 0.00, 0.00, 0.00, 0.00, 0.00, 0.00
1027, -214.38, -205.43, 0.00, 0.00, 0.00, 0.00, 0.00, 0.00, 0.00
1028, -211.87, -196.07, 0.00, 0.00, 0.00, 0.00, 0.00, 0.00, 0.00
1029, -215.54, -187.44, 0.00, 0.00, 0.00, 0.00, 0.00, 0.00, 0.00
1030, -211.22, -204.90, 0.00, 0.00, 0.00, 0.00, 0.00, 0.00, 0.00
1031, -220.05, -191.24, 0.00, 0.00, 0.00, 0.00, 0.00, 0.00, 0.00
1032, -213.35, -196.85, 0.00, 0.00, 0.00, 0.00, 0.00, 0.00, 0.00
1033, -213.73, -194.04, 0.00, 0.00, 0.00, 0.00, 0.00, 0.00, 0.00
1034, -222.11, -182.59, 0.00, 0.00, 0.00, 0.00, 0.00, 0.00, 0.00
1035, -220.54, -196.99, 0.00, 0.00, 0.00, 0.00, 0.00, 0.00, 0.00
1036, -226.33, -184.96, 0.00, 0.00, 0.00, 0.00, 0.00, 0.00, 0.00
1037, -225.46, -195.47, 0.00, 0.00, 0.00, 0.00, 0.00, 0.00, 0.00
1038, -228.57, -206.13, 0.00, 0.00, 0.00, 0.00, 0.00, 0.00, 0.00
1039, -228.66, -193.86, 0.00, 0.00, 0.00, 0.00, 0.00, 0.00, 0.00
1040, -221.30, -204.12, 0.00, 0.00, 0.00, 0.00, 0.00, 0.00, 0.00
1041, -228.01, -190.91, 0.00, 0.00, 0.00, 0.00, 0.00, 0.00, 0.00
1042, -221.39, -186.70, 0.00, 0.00, 0.00, 0.00, 0.00, 0.00, 0.00
1043, -221.75, -198.06, 0.00, 0.00, 0.00, 0.00, 0.00, 0.00, 0.00
1044, -229.26, -187.73, 0.00, 0.00, 0.00, 0.00, 0.00, 0.00, 0.00
1045, -225.91, -202.31, 0.00, 0.00, 0.00, 0.00, 0.00, 0.00, 0.00
1046, -233.06, -195.67, 0.00, 0.00, 0.00, 0.00, 0.00, 0.00, 0.00
1047, -228.37, -189.81, 0.00, 0.00, 0.00, 0.00, 0.00, 0.00, 0.00
1048, -230.33, -200.52, 0.00, 0.00, 0.00, 0.00, 0.00, 0.00, 0.00
1049, -234.92, -188.11, 0.00, 0.00, 0.00, 0.00, 0.00, 0.00, 0.00
1050, -225.55, -194.08, 0.00, 0.00, 0.00, 0.00, 0.00, 0.00, 0.00
1051, -228.59, -188.63, 0.00, 0.00, 0.00, 0.00, 0.00, 0.00, 0.00
1052, -232.21, -186.68, 0.00, 0.00, 0.00, 0.00, 0.00, 0.00, 0.00
1053, -226.00, -190.88, 0.00, 0.00, 0.00, 0.00, 0.00, 0.00, 0.00
1054, -236.01, -187.58, 0.00, 0.00, 0.00, 0.00, 0.00, 0.00, 0.00
1055, -236.32, -197.63, 0.00, 0.00, 0.00, 0.00, 0.00, 0.00, 0.00
1056, -238.58, -193.41, 0.00, 0.00, 0.00, 0.00, 0.00, 0.00, 0.00
1057, -239.61, -186.48, 0.00, 0.00, 0.00, 0.00, 0.00, 0.00, 0.00
1058, -237.62, -198.64, 0.00, 0.00, 0.00, 0.00, 0.00, 0.00, 0.00
1059, -241.51, -185.90, 0.00, 0.00, 0.00, 0.00, 0.00, 0.00, 0.00
1060, -235.88, -185.03, 0.00, 0.00, 0.00, 0.00, 0.00, 0.00, 0.00
1061, -241.89, -192.25, 0.00, 0.00, 0.00, 0.00, 0.00, 0.00, 0.00
1062, -246.05, -188.51, 0.00, 0.00, 0.00, 0.00, 0.00, 0.00, 0.00
1063, -240.64, -195.60, 0.00, 0.00, 0.00, 0.00, 0.00, 0.00, 0.00
1064, -247.68, -190.17, 0.00, 0.00, 0.00, 0.00, 0.00, 0.00, 0.00
1065, -239.05, -186.70, 0.00, 0.00, 0.00, 0.00, 0.00, 0.00, 0.00
1066, -241.29, -193.39, 0.00, 0.00, 0.00, 0.00, 0.00, 0.00, 0.00
1067, -243.72, -188.78, 0.00, 0.00, 0.00, 0.00, 0.00, 0.00, 0.00
1068, -241.15, -189.72, 0.00, 0.00, 0.00, 0.00, 0.00, 0.00, 0.00
1069, -243.41, -187.55, 0.00, 0.00, 0.00, 0.00, 0.00, 0.00, 0.00
1070, -244.39, -187.44, 0.00, 0.00, 0.00, 0.00, 0.00, 0.00, 0.00
1071, -244.86, -191.35, 0.00, 0.00, 0.00, 0.00, 0.00, 0.00, 0.00
1072, -243.16, -187.44, 0.00, 0.00, 0.00, 0.00, 0.00, 0.00, 0.00
1073, -239.45, -182.90, 0.00, 0.00, 0.00, 0.00, 0.00, 0.00, 0.00
1074, -242.78, -182.64, 0.00, 0.00, 0.00, 0.00, 0.00, 0.00, 0.00
1075, -245.11, -186.84, 0.00, 0.00, 0.00, 0.00, 0.00, 0.00, 0.00
1076, -245.20, -185.65, 0.00, 0.00, 0.00, 0.00, 0.00, 0.00, 0.00
1077, -245.87, -182.21, 0.00, 0.00, 0.00, 0.00, 0.00, 0.00, 0.00
1078, -249.71, -189.54, 0.00, 0.00, 0.00, 0.00, 0.00, 0.00, 0.00
1079, -249.22, -190.10, 0.00, 0.00, 0.00, 0.00, 0.00, 0.00, 0.00
1080, -248.04, -188.18, 0.00, 0.00, 0.00, 0.00, 0.00, 0.00, 0.00
1081, -250.27, -188.20, 0.00, 0.00, 0.00, 0.00, 0.00, 0.00, 0.00
1082, -247.86, -191.11, 0.00, 0.00, 0.00, 0.00, 0.00, 0.00, 0.00
1083, -245.58, -185.88, 0.00, 0.00, 0.00, 0.00, 0.00, 0.00, 0.00
1084, -251.77, -189.23, 0.00, 0.00, 0.00, 0.00, 0.00, 0.00, 0.00
1085, -245.98, -189.79, 0.00, 0.00, 0.00, 0.00, 0.00, 0.00, 0.00
1086, -251.93, -188.74, 0.00, 0.00, 0.00, 0.00, 0.00, 0.00, 0.00
1087, -251.68, -192.85, 0.00, 0.00, 0.00, 0.00, 0.00, 0.00, 0.00
1088, -254.90, -187.69, 0.00, 0.00, 0.00, 0.00, 0.00, 0.00, 0.00
1089, -254.30, -191.20, 0.00, 0.00, 0.00, 0.00, 0.00, 0.00, 0.00
1090, -252.64, -190.91, 0.00, 0.00, 0.00, 0.00, 0.00, 0.00, 0.00
1091, -259.97, -185.70, 0.00, 0.00, 0.00, 0.00, 0.00, 0.00, 0.00
1092, -253.45, -192.56, 0.00, 0.00, 0.00, 0.00, 0.00, 0.00, 0.00
1093, -257.89, -187.24, 0.00, 0.00, 0.00, 0.00, 0.00, 0.00, 0.00
1094, -259.86, -185.09, 0.00, 0.00, 0.00, 0.00, 0.00, 0.00, 0.00
1095, -253.00, -188.36, 0.00, 0.00, 0.00, 0.00, 0.00, 0.00, 0.00
1096, -258.77, -180.94, 0.00, 0.00, 0.00, 0.00, 0.00, 0.00, 0.00
1097, -257.02, -191.44, 0.00, 0.00, 0.00, 0.00, 0.00, 0.00, 0.00
1098, -257.56, -185.90, 0.00, 0.00, 0.00, 0.00, 0.00, 0.00, 0.00
1099, -258.97, -180.16, 0.00, 0.00, 0.00, 0.00, 0.00, 0.00, 0.00
1100, -253.58, -191.20, 0.00, 0.00, 0.00, 0.00, 0.00, 0.00, 0.00
1101, -260.42, -185.56, 0.00, 0.00, 0.00, 0.00, 0.00, 0.00, 0.00
1102, -257.25, -188.56, 0.00, 0.00, 0.00, 0.00, 0.00, 0.00, 0.00
1103, -254.45, -183.04, 0.00, 0.00, 0.00, 0.00, 0.00, 0.00, 0.00
1104, -261.07, -179.53, 0.00, 0.00, 0.00, 0.00, 0.00, 0.00, 0.00
1105, -254.63, -189.48, 0.00, 0.00, 0.00, 0.00, 0.00, 0.00, 0.00
1106, -256.42, -179.17, 0.00, 0.00, 0.00, 0.00, 0.00, 0.00, 0.00
1107, -254.43, -181.38, 0.00, 0.00, 0.00, 0.00, 0.00, 0.00, 0.00
1108, -258.21, -188.89, 0.00, 0.00, 0.00, 0.00, 0.00, 0.00, 0.00
1109, -259.59, -180.47, 0.00, 0.00, 0.00, 0.00, 0.00, 0.00, 0.00
1110, -258.99, -188.38, 0.00, 0.00, 0.00, 0.00, 0.00, 0.00, 0.00
1111, -262.50, -182.10, 0.00, 0.00, 0.00, 0.00, 0.00, 0.00, 0.00
1112, -260.55, -184.49, 0.00, 0.00, 0.00, 0.00, 0.00, 0.00, 0.00
1113, -259.48, -188.09, 0.00, 0.00, 0.00, 0.00, 0.00, 0.00, 0.00
1114, -259.73, -179.82, 0.00, 0.00, 0.00, 0.00, 0.00, 0.00, 0.00
1115, -258.48, -187.24, 0.00, 0.00, 0.00, 0.00, 0.00, 0.00, 0.00
1116, -262.07, -181.72, 0.00, 0.00, 0.00, 0.00, 0.00, 0.00, 0.00
1117, -262.25, -182.64, 0.00, 0.00, 0.00, 0.00, 0.00, 0.00, 0.00
1118, -263.77, -193.39, 0.00, 0.00, 0.00, 0.00, 0.00, 0.00, 0.00
1119, -267.75, -187.20, 0.00, 0.00, 0.00, 0.00, 0.00, 0.00, 0.00
1120, -266.19, -189.63, 0.00, 0.00, 0.00, 0.00, 0.00, 0.00, 0.00
1121, -270.90, -187.91, 0.00, 0.00, 0.00, 0.00, 0.00, 0.00, 0.00
1122, -273.29, -183.82, 0.00, 0.00, 0.00, 0.00, 0.00, 0.00, 0.00
1123, -269.94, -193.97, 0.00, 0.00, 0.00, 0.00, 0.00, 0.00, 0.00
1124, -271.01, -190.08, 0.00, 0.00, 0.00, 0.00, 0.00, 0.00, 0.00
1125, -272.15, -191.85, 0.00, 0.00, 0.00, 0.00, 0.00, 0.00, 0.00
1126, -270.63, -192.45, 0.00, 0.00, 0.00, 0.00, 0.00, 0.00, 0.00
1127, -271.39, -189.01, 0.00, 0.00, 0.00, 0.00, 0.00, 0.00, 0.00
1128, -271.73, -193.86, 0.00, 0.00, 0.00, 0.00, 0.00, 0.00, 0.00
1129, -275.28, -191.11, 0.00, 0.00, 0.00, 0.00, 0.00, 0.00, 0.00
1130, -277.54, -192.96, 0.00, 0.00, 0.00, 0.00, 0.00, 0.00, 0.00
1131, -273.14, -195.71, 0.00, 0.00, 0.00, 0.00, 0.00, 0.00, 0.00
1132, -270.08, -185.43, 0.00, 0.00, 0.00, 0.00, 0.00, 0.00, 0.00
1133, -274.90, -192.60, 0.00, 0.00, 0.00, 0.00, 0.00, 0.00, 0.00
1134, -269.23, -191.33, 0.00, 0.00, 0.00, 0.00, 0.00, 0.00, 0.00
1135, -274.26, -187.02, 0.00, 0.00, 0.00, 0.00, 0.00, 0.00, 0.00
1136, -275.98, -196.07, 0.00, 0.00, 0.00, 0.00, 0.00, 0.00, 0.00
1137, -277.45, -192.45, 0.00, 0.00, 0.00, 0.00, 0.00, 0.00, 0.00
1138, -279.20, -195.60, 0.00, 0.00, 0.00, 0.00, 0.00, 0.00, 0.00
1139, -278.77, -197.28, 0.00, 0.00, 0.00, 0.00, 0.00, 0.00, 0.00
1140, -279.42, -188.51, 0.00, 0.00, 0.00, 0.00, 0.00, 0.00, 0.00
1141, -278.35, -196.63, 0.00, 0.00, 0.00, 0.00, 0.00, 0.00, 0.00
1142, -277.27, -192.11, 0.00, 0.00, 0.00, 0.00, 0.00, 0.00, 0.00
1143, -279.49, -188.78, 0.00, 0.00, 0.00, 0.00, 0.00, 0.00, 0.00
1144, -280.20, -198.10, 0.00, 0.00, 0.00, 0.00, 0.00, 0.00, 0.00
1145, -278.53, -187.37, 0.00, 0.00, 0.00, 0.00, 0.00, 0.00, 0.00
1146, -278.12, -193.92, 0.00, 0.00, 0.00, 0.00, 0.00, 0.00, 0.00
1147, -279.91, -191.44, 0.00, 0.00, 0.00, 0.00, 0.00, 0.00, 0.00
1148, -280.16, -186.08, 0.00, 0.00, 0.00, 0.00, 0.00, 0.00, 0.00
1149, -279.20, -196.52, 0.00, 0.00, 0.00, 0.00, 0.00, 0.00, 0.00
1150, -279.80, -183.51, 0.00, 0.00, 0.00, 0.00, 0.00, 0.00, 0.00
1151, -277.54, -190.59, 0.00, 0.00, 0.00, 0.00, 0.00, 0.00, 0.00
1152, -280.78, -195.64, 0.00, 0.00, 0.00, 0.00, 0.00, 0.00, 0.00
1153, -279.93, -184.29, 0.00, 0.00, 0.00, 0.00, 0.00, 0.00, 0.00
1154, -279.91, -198.01, 0.00, 0.00, 0.00, 0.00, 0.00, 0.00, 0.00
1155, -286.37, -189.14, 0.00, 0.00, 0.00, 0.00, 0.00, 0.00, 0.00
1156, -284.56, -194.73, 0.00, 0.00, 0.00, 0.00, 0.00, 0.00, 0.00
1157, -289.92, -198.60, 0.00, 0.00, 0.00, 0.00, 0.00, 0.00, 0.00
1158, -287.33, -182.12, 0.00, 0.00, 0.00, 0.00, 0.00, 0.00, 0.00
1159, -281.83, -193.41, 0.00, 0.00, 0.00, 0.00, 0.00, 0.00, 0.00
1160, -289.37, -187.02, 0.00, 0.00, 0.00, 0.00, 0.00, 0.00, 0.00
1161, -286.01, -184.89, 0.00, 0.00, 0.00, 0.00, 0.00, 0.00, 0.00
1162, -280.74, -193.45, 0.00, 0.00, 0.00, 0.00, 0.00, 0.00, 0.00
1163, -287.09, -180.83, 0.00, 0.00, 0.00, 0.00, 0.00, 0.00, 0.00
1164, -283.17, -196.09, 0.00, 0.00, 0.00, 0.00, 0.00, 0.00, 0.00
1165, -287.56, -193.74, 0.00, 0.00, 0.00, 0.00, 0.00, 0.00, 0.00
1166, -287.85, -191.09, 0.00, 0.00, 0.00, 0.00, 0.00, 0.00, 0.00
1167, -284.94, -204.16, 0.00, 0.00, 0.00, 0.00, 0.00, 0.00, 0.00
1168, -290.17, -187.58, 0.00, 0.00, 0.00, 0.00, 0.00, 0.00, 0.00
1169, -284.20, -194.64, 0.00, 0.00, 0.00, 0.00, 0.00, 0.00, 0.00
1170, -285.95, -194.66, 0.00, 0.00, 0.00, 0.00, 0.00, 0.00, 0.00
1171, -287.69, -185.03, 0.00, 0.00, 0.00, 0.00, 0.00, 0.00, 0.00
1172, -281.32, -196.02, 0.00, 0.00, 0.00, 0.00, 0.00, 0.00, 0.00
1173, -293.05, -189.41, 0.00, 0.00, 0.00, 0.00, 0.00, 0.00, 0.00
1174, -285.25, -190.95, 0.00, 0.00, 0.00, 0.00, 0.00, 0.00, 0.00
1175, -283.40, -190.41, 0.00, 0.00, 0.00, 0.00, 0.00, 0.00, 0.00
1176, -289.99, -181.90, 0.00, 0.00, 0.00, 0.00, 0.00, 0.00, 0.00
1177, -286.37, -197.99, 0.00, 0.00, 0.00, 0.00, 0.00, 0.00, 0.00
1178, -288.49, -188.49, 0.00, 0.00, 0.00, 0.00, 0.00, 0.00, 0.00
1179, -288.36, -189.48, 0.00, 0.00, 0.00, 0.00, 0.00, 0.00, 0.00
1180, -287.29, -196.36, 0.00, 0.00, 0.00, 0.00, 0.00, 0.00, 0.00
1181, -293.66, -187.26, 0.00, 0.00, 0.00, 0.00, 0.00, 0.00, 0.00
1182, -287.20, -197.30, 0.00, 0.00, 0.00, 0.00, 0.00, 0.00, 0.00
1183, -293.84, -192.45, 0.00, 0.00, 0.00, 0.00, 0.00, 0.00, 0.00
1184, -291.49, -192.69, 0.00, 0.00, 0.00, 0.00, 0.00, 0.00, 0.00
1185, -285.99, -198.24, 0.00, 0.00, 0.00, 0.00, 0.00, 0.00, 0.00
1186, -293.79, -190.35, 0.00, 0.00, 0.00, 0.00, 0.00, 0.00, 0.00
1187, -287.26, -196.78, 0.00, 0.00, 0.00, 0.00, 0.00, 0.00, 0.00
1188, -291.44, -197.97, 0.00, 0.00, 0.00, 0.00, 0.00, 0.00, 0.00
1189, -293.03, -189.52, 0.00, 0.00, 0.00, 0.00, 0.00, 0.00, 0.00
1190, -291.24, -199.85, 0.00, 0.00, 0.00, 0.00, 0.00, 0.00, 0.00
1191, -297.35, -190.77, 0.00, 0.00, 0.00, 0.00, 0.00, 0.00, 0.00
1192, -291.04, -194.12, 0.00, 0.00, 0.00, 0.00, 0.00, 0.00, 0.00
1193, -296.56, -200.54, 0.00, 0.00, 0.00, 0.00, 0.00, 0.00, 0.00
1194, -297.35, -192.87, 0.00, 0.00, 0.00, 0.00, 0.00, 0.00, 0.00
1195, -293.43, -202.98, 0.00, 0.00, 0.00, 0.00, 0.00, 0.00, 0.00
1196, -297.10, -196.02, 0.00, 0.00, 0.00, 0.00, 0.00, 0.00, 0.00
1197, -290.19, -190.97, 0.00, 0.00, 0.00, 0.00, 0.00, 0.00, 0.00
1198, -291.91, -198.60, 0.00, 0.00, 0.00, 0.00, 0.00, 0.00, 0.00
1199, -294.35, -186.57, 0.00, 0.00, 0.00, 0.00, 0.00, 0.00, 0.00
1200, -293.23, -197.19, 0.00, 0.00, 0.00, 0.00, 0.00, 0.00, 0.00
1201, -296.90, -197.77, 0.00, 0.00, 0.00, 0.00, 0.00, 0.00, 0.00
1202, -293.48, -186.82, 0.00, 0.00, 0.00, 0.00, 0.00, 0.00, 0.00
1203, -292.74, -197.23, 0.00, 0.00, 0.00, 0.00, 0.00, 0.00, 0.00
1204, -294.31, -188.31, 0.00, 0.00, 0.00, 0.00, 0.00, 0.00, 0.00
1205, -287.98, -192.16, 0.00, 0.00, 0.00, 0.00, 0.00, 0.00, 0.00
1206, -292.58, -196.36, 0.00, 0.00, 0.00, 0.00, 0.00, 0.00, 0.00
1207, -291.91, -185.45, 0.00, 0.00, 0.00, 0.00, 0.00, 0.00, 0.00
1208, -289.14, -197.77, 0.00, 0.00, 0.00, 0.00, 0.00, 0.00, 0.00
1209, -293.41, -187.89, 0.00, 0.00, 0.00, 0.00, 0.00, 0.00, 0.00
1210, -291.44, -187.02, 0.00, 0.00, 0.00, 0.00, 0.00, 0.00, 0.00
1211, -288.87, -194.35, 0.00, 0.00, 0.00, 0.00, 0.00, 0.00, 0.00
1212, -294.31, -183.02, 0.00, 0.00, 0.00, 0.00, 0.00, 0.00, 0.00
1213, -288.65, -198.22, 0.00, 0.00, 0.00, 0.00, 0.00, 0.00, 0.00
1214, -294.31, -194.46, 0.00, 0.00, 0.00, 0.00, 0.00, 0.00, 0.00
1215, -292.56, -188.43, 0.00, 0.00, 0.00, 0.00, 0.00, 0.00, 0.00
1216, -289.28, -204.21, 0.00, 0.00, 0.00, 0.00, 0.00, 0.00, 0.00
1217, -296.56, -187.89, 0.00, 0.00, 0.00, 0.00, 0.00, 0.00, 0.00
1218, -293.95, -198.46, 0.00, 0.00, 0.00, 0.00, 0.00, 0.00, 0.00
1219, -297.68, -203.00, 0.00, 0.00, 0.00, 0.00, 0.00, 0.00, 0.00
1220, -297.77, -192.36, 0.00, 0.00, 0.00, 0.00, 0.00, 0.00, 0.00
1221, -298.73, -213.44, 0.00, 0.00, 0.00, 0.00, 0.00, 0.00, 0.00
1222, -301.48, -197.12, 0.00, 0.00, 0.00, 0.00, 0.00, 0.00, 0.00
1223, -296.54, -202.93, 0.00, 0.00, 0.00, 0.00, 0.00, 0.00, 0.00
1224, -298.66, -210.29, 0.00, 0.00, 0.00, 0.00, 0.00, 0.00, 0.00
1225, -301.79, -188.54, 0.00, 0.00, 0.00, 0.00, 0.00, 0.00, 0.00
1226, -300.27, -211.25, 0.00, 0.00, 0.00, 0.00, 0.00, 0.00, 0.00
1227, -305.66, -199.02, 0.00, 0.00, 0.00, 0.00, 0.00, 0.00, 0.00
1228, -303.85, -200.03, 0.00, 0.00, 0.00, 0.00, 0.00, 0.00, 0.00
1229, -302.78, -214.93, 0.00, 0.00, 0.00, 0.00, 0.00, 0.00, 0.00
1230, -307.14, -192.60, 0.00, 0.00, 0.00, 0.00, 0.00, 0.00, 0.00
1231, -302.08, -210.84, 0.00, 0.00, 0.00, 0.00, 0.00, 0.00, 0.00
1232, -305.48, -200.18, 0.00, 0.00, 0.00, 0.00, 0.00, 0.00, 0.00
1233, -301.99, -195.62, 0.00, 0.00, 0.00, 0.00, 0.00, 0.00, 0.00
1234, -301.97, -214.31, 0.00, 0.00, 0.00, 0.00, 0.00, 0.00, 0.00
1235, -309.97, -194.91, 0.00, 0.00, 0.00, 0.00, 0.00, 0.00, 0.00
1236, -302.55, -210.06, 0.00, 0.00, 0.00, 0.00, 0.00, 0.00, 0.00
1237, -308.10, -206.82, 0.00, 0.00, 0.00, 0.00, 0.00, 0.00, 0.00
1238, -310.33, -196.70, 0.00, 0.00, 0.00, 0.00, 0.00, 0.00, 0.00
1239, -307.34, -215.45, 0.00, 0.00, 0.00, 0.00, 0.00, 0.00, 0.00
1240, -313.19, -195.13, 0.00, 0.00, 0.00, 0.00, 0.00, 0.00, 0.00
1241, -308.07, -208.45, 0.00, 0.00, 0.00, 0.00, 0.00, 0.00, 0.00
1242, -309.08, -213.33, 0.00, 0.00, 0.00, 0.00, 0.00, 0.00, 0.00
1243, -312.81, -196.43, 0.00, 0.00, 0.00, 0.00, 0.00, 0.00, 0.00
1244, -307.83, -216.19, 0.00, 0.00, 0.00, 0.00, 0.00, 0.00, 0.00
1245, -310.91, -198.75, 0.00, 0.00, 0.00, 0.00, 0.00, 0.00, 0.00
1246, -309.35, -206.13, 0.00, 0.00, 0.00, 0.00, 0.00, 0.00, 0.00
1247, -312.23, -212.74, 0.00, 0.00, 0.00, 0.00, 0.00, 0.00, 0.00
1248, -316.12, -196.29, 0.00, 0.00, 0.00, 0.00, 0.00, 0.00, 0.00
1249, -312.54, -216.25, 0.00, 0.00, 0.00, 0.00, 0.00, 0.00, 0.00
1250, -317.75, -203.31, 0.00, 0.00, 0.00, 0.00, 0.00, 0.00, 0.00
1251, -314.65, -203.36, 0.00, 0.00, 0.00, 0.00, 0.00, 0.00, 0.00
1252, -315.27, -214.91, 0.00, 0.00, 0.00, 0.00, 0.00, 0.00, 0.00
1253, -320.73, -197.86, 0.00, 0.00, 0.00, 0.00, 0.00, 0.00, 0.00
1254, -313.77, -213.39, 0.00, 0.00, 0.00, 0.00, 0.00, 0.00, 0.00
1255, -319.21, -205.88, 0.00, 0.00, 0.00, 0.00, 0.00, 0.00, 0.00
1256, -319.38, -203.71, 0.00, 0.00, 0.00, 0.00, 0.00, 0.00, 0.00
1257, -314.62, -215.43, 0.00, 0.00, 0.00, 0.00, 0.00, 0.00, 0.00
1258, -321.42, -200.90, 0.00, 0.00, 0.00, 0.00, 0.00, 0.00, 0.00
1259, -317.26, -212.48, 0.00, 0.00, 0.00, 0.00, 0.00, 0.00, 0.00
1260, -319.21, -208.54, 0.00, 0.00, 0.00, 0.00, 0.00, 0.00, 0.00
1261, -323.94, -200.74, 0.00, 0.00, 0.00, 0.00, 0.00, 0.00, 0.00
1262, -317.33, -214.33, 0.00, 0.00, 0.00, 0.00, 0.00, 0.00, 0.00
1263, -325.26, -204.14, 0.00, 0.00, 0.00, 0.00, 0.00, 0.00, 0.00
1264, -319.07, -210.73, 0.00, 0.00, 0.00, 0.00, 0.00, 0.00, 0.00
1265, -321.89, -215.43, 0.00, 0.00, 0.00, 0.00, 0.00, 0.00, 0.00
1266, -322.27, -207.11, 0.00, 0.00, 0.00, 0.00, 0.00, 0.00, 0.00
1267, -319.16, -218.47, 0.00, 0.00, 0.00, 0.00, 0.00, 0.00, 0.00
1268, -327.56, -211.27, 0.00, 0.00, 0.00, 0.00, 0.00, 0.00, 0.00
1269, -319.47, -208.25, 0.00, 0.00, 0.00, 0.00, 0.00, 0.00, 0.00
1270, -321.57, -215.16, 0.00, 0.00, 0.00, 0.00, 0.00, 0.00, 0.00
1271, -326.20, -208.63, 0.00, 0.00, 0.00, 0.00, 0.00, 0.00, 0.00
1272, -319.72, -213.79, 0.00, 0.00, 0.00, 0.00, 0.00, 0.00, 0.00
1273, -327.12, -217.77, 0.00, 0.00, 0.00, 0.00, 0.00, 0.00, 0.00
1274, -321.93, -213.12, 0.00, 0.00, 0.00, 0.00, 0.00, 0.00, 0.00
1275, -323.39, -219.11, 0.00, 0.00, 0.00, 0.00, 0.00, 0.00, 0.00
1276, -324.79, -210.06, 0.00, 0.00, 0.00, 0.00, 0.00, 0.00, 0.00
1277, -319.47, -211.98, 0.00, 0.00, 0.00, 0.00, 0.00, 0.00, 0.00
1278, -319.05, -213.88, 0.00, 0.00, 0.00, 0.00, 0.00, 0.00, 0.00
1279, -324.46, -208.70, 0.00, 0.00, 0.00, 0.00, 0.00, 0.00, 0.00
1280, -323.41, -216.16, 0.00, 0.00, 0.00, 0.00, 0.00, 0.00, 0.00
1281, -328.70, -216.70, 0.00, 0.00, 0.00, 0.00, 0.00, 0.00, 0.00
1282, -325.87, -210.73, 0.00, 0.00, 0.00, 0.00, 0.00, 0.00, 0.00
1283, -325.91, -217.10, 0.00, 0.00, 0.00, 0.00, 0.00, 0.00, 0.00
1284, -326.78, -204.83, 0.00, 0.00, 0.00, 0.00, 0.00, 0.00, 0.00
1285, -321.87, -206.06, 0.00, 0.00, 0.00, 0.00, 0.00, 0.00, 0.00
1286, -329.42, -210.55, 0.00, 0.00, 0.00, 0.00, 0.00, 0.00, 0.00
1287, -327.50, -205.19, 0.00, 0.00, 0.00, 0.00, 0.00, 0.00, 0.00
1288, -327.54, -217.08, 0.00, 0.00, 0.00, 0.00, 0.00, 0.00, 0.00
1289, -331.03, -212.54, 0.00, 0.00, 0.00, 0.00, 0.00, 0.00, 0.00
1290, -332.97, -215.07, 0.00, 0.00, 0.00, 0.00, 0.00, 0.00, 0.00
1291, -331.70, -224.52, 0.00, 0.00, 0.00, 0.00, 0.00, 0.00, 0.00
1292, -334.67, -210.22, 0.00, 0.00, 0.00, 0.00, 0.00, 0.00, 0.00
1293, -335.41, -220.59, 0.00, 0.00, 0.00, 0.00, 0.00, 0.00, 0.00
1294, -338.79, -218.98, 0.00, 0.00, 0.00, 0.00, 0.00, 0.00, 0.00
1295, -333.69, -212.92, 0.00, 0.00, 0.00, 0.00, 0.00, 0.00, 0.00
1296, -332.04, -225.37, 0.00, 0.00, 0.00, 0.00, 0.00, 0.00, 0.00
1297, -337.67, -208.90, 0.00, 0.00, 0.00, 0.00, 0.00, 0.00, 0.00
1298, -334.07, -219.87, 0.00, 0.00, 0.00, 0.00, 0.00, 0.00, 0.00
1299, -333.62, -219.67, 0.00, 0.00, 0.00, 0.00, 0.00, 0.00, 0.00
1300, -336.97, -209.82, 0.00, 0.00, 0.00, 0.00, 0.00, 0.00, 0.00
1301, -334.58, -227.09, 0.00, 0.00, 0.00, 0.00, 0.00, 0.00, 0.00
1302, -340.82, -213.46, 0.00, 0.00, 0.00, 0.00, 0.00, 0.00, 0.00
1303, -336.17, -221.60, 0.00, 0.00, 0.00, 0.00, 0.00, 0.00, 0.00
1304, -339.23, -227.54, 0.00, 0.00, 0.00, 0.00, 0.00, 0.00, 0.00
1305, -341.00, -211.22, 0.00, 0.00, 0.00, 0.00, 0.00, 0.00, 0.00
1306, -335.99, -230.47, 0.00, 0.00, 0.00, 0.00, 0.00, 0.00, 0.00
1307, -341.85, -211.20, 0.00, 0.00, 0.00, 0.00, 0.00, 0.00, 0.00
1308, -335.68, -215.27, 0.00, 0.00, 0.00, 0.00, 0.00, 0.00, 0.00
1309, -339.39, -228.66, 0.00, 0.00, 0.00, 0.00, 0.00, 0.00, 0.00
1310, -342.09, -206.93, 0.00, 0.00, 0.00, 0.00, 0.00, 0.00, 0.00
1311, -334.90, -228.28, 0.00, 0.00, 0.00, 0.00, 0.00, 0.00, 0.00
1312, -339.97, -215.98, 0.00, 0.00, 0.00, 0.00, 0.00, 0.00, 0.00
1313, -339.46, -214.20, 0.00, 0.00, 0.00, 0.00, 0.00, 0.00, 0.00
1314, -338.56, -228.43, 0.00, 0.00, 0.00, 0.00, 0.00, 0.00, 0.00
1315, -341.60, -203.24, 0.00, 0.00, 0.00, 0.00, 0.00, 0.00, 0.00
1316, -334.72, -223.92, 0.00, 0.00, 0.00, 0.00, 0.00, 0.00, 0.00
1317, -337.15, -214.76, 0.00, 0.00, 0.00, 0.00, 0.00, 0.00, 0.00
1318, -335.32, -206.69, 0.00, 0.00, 0.00, 0.00, 0.00, 0.00, 0.00
1319, -334.81, -227.29, 0.00, 0.00, 0.00, 0.00, 0.00, 0.00, 0.00
1320, -342.47, -209.10, 0.00, 0.00, 0.00, 0.00, 0.00, 0.00, 0.00
1321, -334.72, -220.63, 0.00, 0.00, 0.00, 0.00, 0.00, 0.00, 0.00
1322, -339.59, -218.35, 0.00, 0.00, 0.00, 0.00, 0.00, 0.00, 0.00
1323, -340.60, -209.01, 0.00, 0.00, 0.00, 0.00, 0.00, 0.00, 0.00
1324, -334.34, -224.57, 0.00, 0.00, 0.00, 0.00, 0.00, 0.00, 0.00
1325, -338.11, -204.43, 0.00, 0.00, 0.00, 0.00, 0.00, 0.00, 0.00
1326, -337.02, -217.68, 0.00, 0.00, 0.00, 0.00, 0.00, 0.00, 0.00
1327, -336.24, -219.00, 0.00, 0.00, 0.00, 0.00, 0.00, 0.00, 0.00
1328, -336.10, -207.42, 0.00, 0.00, 0.00, 0.00, 0.00, 0.00, 0.00
1329, -331.43, -224.03, 0.00, 0.00, 0.00, 0.00, 0.00, 0.00, 0.00
1330, -338.81, -208.23, 0.00, 0.00, 0.00, 0.00, 0.00, 0.00, 0.00
1331, -336.68, -216.90, 0.00, 0.00, 0.00, 0.00, 0.00, 0.00, 0.00
1332, -336.95, -221.42, 0.00, 0.00, 0.00, 0.00, 0.00, 0.00, 0.00
1333, -341.53, -210.02, 0.00, 0.00, 0.00, 0.00, 0.00, 0.00, 0.00
1334, -332.06, -223.67, 0.00, 0.00, 0.00, 0.00, 0.00, 0.00, 0.00
1335, -342.81, -214.53, 0.00, 0.00, 0.00, 0.00, 0.00, 0.00, 0.00
1336, -337.51, -217.01, 0.00, 0.00, 0.00, 0.00, 0.00, 0.00, 0.00
1337, -338.49, -226.65, 0.00, 0.00, 0.00, 0.00, 0.00, 0.00, 0.00
1338, -343.97, -216.12, 0.00, 0.00, 0.00, 0.00, 0.00, 0.00, 0.00
1339, -341.65, -229.15, 0.00, 0.00, 0.00, 0.00, 0.00, 0.00, 0.00
1340, -344.80, -223.65, 0.00, 0.00, 0.00, 0.00, 0.00, 0.00, 0.00
1341, -340.86, -220.70, 0.00, 0.00, 0.00, 0.00, 0.00, 0.00, 0.00
1342, -342.99, -225.28, 0.00, 0.00, 0.00, 0.00, 0.00, 0.00, 0.00
1343, -343.86, -215.02, 0.00, 0.00, 0.00, 0.00, 0.00, 0.00, 0.00
1344, -343.01, -222.89, 0.00, 0.00, 0.00, 0.00, 0.00, 0.00, 0.00
1345, -346.07, -221.10, 0.00, 0.00, 0.00, 0.00, 0.00, 0.00, 0.00
1346, -346.05, -219.85, 0.00, 0.00, 0.00, 0.00, 0.00, 0.00, 0.00
1347, -345.33, -227.25, 0.00, 0.00, 0.00, 0.00, 0.00, 0.00, 0.00
1348, -348.04, -221.82, 0.00, 0.00, 0.00, 0.00, 0.00, 0.00, 0.00
1349, -343.90, -220.25, 0.00, 0.00, 0.00, 0.00, 0.00, 0.00, 0.00
1350, -346.45, -221.06, 0.00, 0.00, 0.00, 0.00, 0.00, 0.00, 0.00
1351, -345.51, -217.53, 0.00, 0.00, 0.00, 0.00, 0.00, 0.00, 0.00
1352, -347.08, -222.24, 0.00, 0.00, 0.00, 0.00, 0.00, 0.00, 0.00
1353, -351.10, -224.03, 0.00, 0.00, 0.00, 0.00, 0.00, 0.00, 0.00
1354, -348.69, -216.83, 0.00, 0.00, 0.00, 0.00, 0.00, 0.00, 0.00
1355, -343.39, -218.49, 0.00, 0.00, 0.00, 0.00, 0.00, 0.00, 0.00
1356, -344.91, -221.86, 0.00, 0.00, 0.00, 0.00, 0.00, 0.00, 0.00
1357, -349.89, -221.37, 0.00, 0.00, 0.00, 0.00, 0.00, 0.00, 0.00
1358, -345.94, -224.50, 0.00, 0.00, 0.00, 0.00, 0.00, 0.00, 0.00
1359, -349.83, -220.63, 0.00, 0.00, 0.00, 0.00, 0.00, 0.00, 0.00
1360, -352.02, -226.09, 0.00, 0.00, 0.00, 0.00, 0.00, 0.00, 0.00
1361, -350.14, -223.76, 0.00, 0.00, 0.00, 0.00, 0.00, 0.00, 0.00
1362, -349.63, -215.83, 0.00, 0.00, 0.00, 0.00, 0.00, 0.00, 0.00
1363, -344.24, -222.87, 0.00, 0.00, 0.00, 0.00, 0.00, 0.00, 0.00
1364, -346.43, -217.15, 0.00, 0.00, 0.00, 0.00, 0.00, 0.00, 0.00
1365, -347.75, -219.11, 0.00, 0.00, 0.00, 0.00, 0.00, 0.00, 0.00
1366, -345.71, -219.81, 0.00, 0.00, 0.00, 0.00, 0.00, 0.00, 0.00
1367, -347.50, -211.89, 0.00, 0.00, 0.00, 0.00, 0.00, 0.00, 0.00
1368, -350.48, -225.28, 0.00, 0.00, 0.00, 0.00, 0.00, 0.00, 0.00
1369, -345.67, -220.79, 0.00, 0.00, 0.00, 0.00, 0.00, 0.00, 0.00
1370, -348.22, -220.08, 0.00, 0.00, 0.00, 0.00, 0.00, 0.00, 0.00
1371, -344.98, -225.64, 0.00, 0.00, 0.00, 0.00, 0.00, 0.00, 0.00
1372, -340.55, -209.77, 0.00, 0.00, 0.00, 0.00, 0.00, 0.00, 0.00
1373, -341.47, -222.13, 0.00, 0.00, 0.00, 0.00, 0.00, 0.00, 0.00
1374, -341.29, -217.64, 0.00, 0.00, 0.00, 0.00, 0.00, 0.00, 0.00
1375, -340.57, -213.33, 0.00, 0.00, 0.00, 0.00, 0.00, 0.00, 0.00
1376, -342.52, -223.29, 0.00, 0.00, 0.00, 0.00, 0.00, 0.00, 0.00
1377, -346.36, -208.90, 0.00, 0.00, 0.00, 0.00, 0.00, 0.00, 0.00
1378, -342.79, -214.44, 0.00, 0.00, 0.00, 0.00, 0.00, 0.00, 0.00
1379, -342.25, -213.71, 0.00, 0.00, 0.00, 0.00, 0.00, 0.00, 0.00
1380, -346.30, -207.83, 0.00, 0.00, 0.00, 0.00, 0.00, 0.00, 0.00
1381, -343.39, -222.20, 0.00, 0.00, 0.00, 0.00, 0.00, 0.00, 0.00
1382, -347.41, -209.70, 0.00, 0.00, 0.00, 0.00, 0.00, 0.00, 0.00
1383, -344.95, -216.61, 0.00, 0.00, 0.00, 0.00, 0.00, 0.00, 0.00
1384, -344.87, -219.47, 0.00, 0.00, 0.00, 0.00, 0.00, 0.00, 0.00
1385, -348.75, -206.28, 0.00, 0.00, 0.00, 0.00, 0.00, 0.00, 0.00
1386, -341.04, -219.74, 0.00, 0.00, 0.00, 0.00, 0.00, 0.00, 0.00
1387, -347.95, -210.89, 0.00, 0.00, 0.00, 0.00, 0.00, 0.00, 0.00
1388, -345.04, -210.96, 0.00, 0.00, 0.00, 0.00, 0.00, 0.00, 0.00
1389, -345.47, -220.28, 0.00, 0.00, 0.00, 0.00, 0.00, 0.00, 0.00
1390, -344.51, -201.88, 0.00, 0.00, 0.00, 0.00, 0.00, 0.00, 0.00
1391, -342.65, -221.53, 0.00, 0.00, 0.00, 0.00, 0.00, 0.00, 0.00
1392, -347.17, -211.36, 0.00, 0.00, 0.00, 0.00, 0.00, 0.00, 0.00
1393, -347.48, -213.53, 0.00, 0.00, 0.00, 0.00, 0.00, 0.00, 0.00
1394, -348.08, -228.79, 0.00, 0.00, 0.00, 0.00, 0.00, 0.00, 0.00
1395, -356.93, -214.84, 0.00, 0.00, 0.00, 0.00, 0.00, 0.00, 0.00
1396, -343.93, -224.46, 0.00, 0.00, 0.00, 0.00, 0.00, 0.00, 0.00
1397, -348.89, -221.24, 0.00, 0.00, 0.00, 0.00, 0.00, 0.00, 0.00
1398, -346.03, -213.06, 0.00, 0.00, 0.00, 0.00, 0.00, 0.00, 0.00
1399, -339.84, -226.27, 0.00, 0.00, 0.00, 0.00, 0.00, 0.00, 0.00
1400, -349.56, -212.21, 0.00, 0.00, 0.00, 0.00, 0.00, 0.00, 0.00
1401, -345.45, -224.37, 0.00, 0.00, 0.00, 0.00, 0.00, 0.00, 0.00
1402, -348.04, -223.34, 0.00, 0.00, 0.00, 0.00, 0.00, 0.00, 0.00
1403, -353.02, -217.15, 0.00, 0.00, 0.00, 0.00, 0.00, 0.00, 0.00
1404, -348.55, -228.39, 0.00, 0.00, 0.00, 0.00, 0.00, 0.00, 0.00
1405, -353.38, -215.14, 0.00, 0.00, 0.00, 0.00, 0.00, 0.00, 0.00
1406, -350.07, -221.22, 0.00, 0.00, 0.00, 0.00, 0.00, 0.00, 0.00
1407, -353.07, -223.00, 0.00, 0.00, 0.00, 0.00, 0.00, 0.00, 0.00
1408, -354.05, -215.20, 0.00, 0.00, 0.00, 0.00, 0.00, 0.00, 0.00
1409, -346.90, -222.44, 0.00, 0.00, 0.00, 0.00, 0.00, 0.00, 0.00
1410, -355.84, -214.93, 0.00, 0.00, 0.00, 0.00, 0.00, 0.00, 0.00
1411, -350.90, -216.34, 0.00, 0.00, 0.00, 0.00, 0.00, 0.00, 0.00
1412, -353.40, -219.85, 0.00, 0.00, 0.00, 0.00, 0.00, 0.00, 0.00
1413, -356.38, -210.91, 0.00, 0.00, 0.00, 0.00, 0.00, 0.00, 0.00
1414, -351.15, -217.33, 0.00, 0.00, 0.00, 0.00, 0.00, 0.00, 0.00
1415, -357.69, -214.17, 0.00, 0.00, 0.00, 0.00, 0.00, 0.00, 0.00
1416, -351.35, -215.72, 0.00, 0.00, 0.00, 0.00, 0.00, 0.00, 0.00
1417, -350.83, -220.37, 0.00, 0.00, 0.00, 0.00, 0.00, 0.00, 0.00
1418, -352.02, -213.86, 0.00, 0.00, 0.00, 0.00, 0.00, 0.00, 0.00
1419, -347.86, -221.55, 0.00, 0.00, 0.00, 0.00, 0.00, 0.00, 0.00
1420, -351.93, -219.07, 0.00, 0.00, 0.00, 0.00, 0.00, 0.00, 0.00
1421, -347.73, -215.78, 0.00, 0.00, 0.00, 0.00, 0.00, 0.00, 0.00
1422, -347.12, -217.30, 0.00, 0.00, 0.00, 0.00, 0.00, 0.00, 0.00
1423, -350.50, -215.58, 0.00, 0.00, 0.00, 0.00, 0.00, 0.00, 0.00
1424, -346.79, -217.06, 0.00, 0.00, 0.00, 0.00, 0.00, 0.00, 0.00
1425, -350.23, -216.25, 0.00, 0.00, 0.00, 0.00, 0.00, 0.00, 0.00
1426, -353.52, -218.71, 0.00, 0.00, 0.00, 0.00, 0.00, 0.00, 0.00
1427, -354.92, -219.58, 0.00, 0.00, 0.00, 0.00, 0.00, 0.00, 0.00
1428, -354.70, -220.46, 0.00, 0.00, 0.00, 0.00, 0.00, 0.00, 0.00
1429, -354.50, -218.94, 0.00, 0.00, 0.00, 0.00, 0.00, 0.00, 0.00
1430, -355.10, -217.10, 0.00, 0.00, 0.00, 0.00, 0.00, 0.00, 0.00
1431, -352.73, -216.52, 0.00, 0.00, 0.00, 0.00, 0.00, 0.00, 0.00
1432, -353.96, -213.71, 0.00, 0.00, 0.00, 0.00, 0.00, 0.00, 0.00
1433, -349.22, -215.31, 0.00, 0.00, 0.00, 0.00, 0.00, 0.00, 0.00
1434, -351.70, -213.64, 0.00, 0.00, 0.00, 0.00, 0.00, 0.00, 0.00
1435, -350.72, -215.85, 0.00, 0.00, 0.00, 0.00, 0.00, 0.00, 0.00
1436, -350.16, -216.16, 0.00, 0.00, 0.00, 0.00, 0.00, 0.00, 0.00
1437, -350.99, -211.92, 0.00, 0.00, 0.00, 0.00, 0.00, 0.00, 0.00
1438, -350.88, -219.29, 0.00, 0.00, 0.00, 0.00, 0.00, 0.00, 0.00
1439, -350.18, -213.35, 0.00, 0.00, 0.00, 0.00, 0.00, 0.00, 0.00
1440, -351.37, -213.41, 0.00, 0.00, 0.00, 0.00, 0.00, 0.00, 0.00
1441, -350.39, -213.46, 0.00, 0.00, 0.00, 0.00, 0.00, 0.00, 0.00
1442, -353.38, -211.27, 0.00, 0.00, 0.00, 0.00, 0.00, 0.00, 0.00
1443, -353.00, -219.20, 0.00, 0.00, 0.00, 0.00, 0.00, 0.00, 0.00
1444, -354.88, -213.84, 0.00, 0.00, 0.00, 0.00, 0.00, 0.00, 0.00
1445, -355.66, -215.67, 0.00, 0.00, 0.00, 0.00, 0.00, 0.00, 0.00
1446, -352.15, -220.19, 0.00, 0.00, 0.00, 0.00, 0.00, 0.00, 0.00
1447, -354.74, -211.49, 0.00, 0.00, 0.00, 0.00, 0.00, 0.00, 0.00
1448, -353.45, -213.73, 0.00, 0.00, 0.00, 0.00, 0.00, 0.00, 0.00
1449, -358.63, -214.40, 0.00, 0.00, 0.00, 0.00, 0.00, 0.00, 0.00
1450, -359.44, -214.13, 0.00, 0.00, 0.00, 0.00, 0.00, 0.00, 0.00
1451, -354.66, -222.49, 0.00, 0.00, 0.00, 0.00, 0.00, 0.00, 0.00
1452, -362.86, -218.91, 0.00, 0.00, 0.00, 0.00, 0.00, 0.00, 0.00
1453, -358.43, -223.52, 0.00, 0.00, 0.00, 0.00, 0.00, 0.00, 0.00
1454, -358.66, -220.48, 0.00, 0.00, 0.00, 0.00, 0.00, 0.00, 0.00
1455, -359.24, -213.79, 0.00, 0.00, 0.00, 0.00, 0.00, 0.00, 0.00
1456, -353.96, -220.25, 0.00, 0.00, 0.00, 0.00, 0.00, 0.00, 0.00
1457, -358.81, -210.93, 0.00, 0.00, 0.00, 0.00, 0.00, 0.00, 0.00
1458, -353.47, -213.88, 0.00, 0.00, 0.00, 0.00, 0.00, 0.00, 0.00
1459, -352.89, -217.12, 0.00, 0.00, 0.00, 0.00, 0.00, 0.00, 0.00
1460, -357.85, -209.35, 0.00, 0.00, 0.00, 0.00, 0.00, 0.00, 0.00
1461, -352.53, -218.94, 0.00, 0.00, 0.00, 0.00, 0.00, 0.00, 0.00
1462, -358.19, -213.28, 0.00, 0.00, 0.00, 0.00, 0.00, 0.00, 0.00
1463, -356.51, -214.58, 0.00, 0.00, 0.00, 0.00, 0.00, 0.00, 0.00
1464, -351.95, -216.63, 0.00, 0.00, 0.00, 0.00, 0.00, 0.00, 0.00
1465, -353.00, -204.83, 0.00, 0.00, 0.00, 0.00, 0.00, 0.00, 0.00
1466, -350.21, -212.25, 0.00, 0.00, 0.00, 0.00, 0.00, 0.00, 0.00
1467, -352.78, -208.30, 0.00, 0.00, 0.00, 0.00, 0.00, 0.00, 0.00
1468, -350.92, -206.80, 0.00, 0.00, 0.00, 0.00, 0.00, 0.00, 0.00
1469, -351.77, -216.34, 0.00, 0.00, 0.00, 0.00, 0.00, 0.00, 0.00
1470, -356.18, -208.25, 0.00, 0.00, 0.00, 0.00, 0.00, 0.00, 0.00
1471, -353.94, -215.47, 0.00, 0.00, 0.00, 0.00, 0.00, 0.00, 0.00
1472, -357.00, -214.98, 0.00, 0.00, 0.00, 0.00, 0.00, 0.00, 0.00
1473, -360.13, -211.51, 0.00, 0.00, 0.00, 0.00, 0.00, 0.00, 0.00
1474, -358.45, -216.86, 0.00, 0.00, 0.00, 0.00, 0.00, 0.00, 0.00
1475, -364.24, -210.73, 0.00, 0.00, 0.00, 0.00, 0.00, 0.00, 0.00
1476, -359.55, -212.12, 0.00, 0.00, 0.00, 0.00, 0.00, 0.00, 0.00
1477, -360.02, -215.07, 0.00, 0.00, 0.00, 0.00, 0.00, 0.00, 0.00
1478, -361.47, -204.43, 0.00, 0.00, 0.00, 0.00, 0.00, 0.00, 0.00
1479, -356.58, -213.01, 0.00, 0.00, 0.00, 0.00, 0.00, 0.00, 0.00
1480, -363.35, -211.38, 0.00, 0.00, 0.00, 0.00, 0.00, 0.00, 0.00
1481, -362.39, -211.00, 0.00, 0.00, 0.00, 0.00, 0.00, 0.00, 0.00
1482, -360.91, -215.60, 0.00, 0.00, 0.00, 0.00, 0.00, 0.00, 0.00
1483, -364.04, -205.10, 0.00, 0.00, 0.00, 0.00, 0.00, 0.00, 0.00
1484, -360.29, -214.13, 0.00, 0.00, 0.00, 0.00, 0.00, 0.00, 0.00
1485, -365.72, -215.07, 0.00, 0.00, 0.00, 0.00, 0.00, 0.00, 0.00
1486, -359.84, -205.21, 0.00, 0.00, 0.00, 0.00, 0.00, 0.00, 0.00
1487, -362.66, -216.68, 0.00, 0.00, 0.00, 0.00, 0.00, 0.00, 0.00
1488, -363.48, -209.03, 0.00, 0.00, 0.00, 0.00, 0.00, 0.00, 0.00
1489, -357.69, -209.82, 0.00, 0.00, 0.00, 0.00, 0.00, 0.00, 0.00
1490, -359.75, -215.49, 0.00, 0.00, 0.00, 0.00, 0.00, 0.00, 0.00
1491, -355.91, -203.89, 0.00, 0.00, 0.00, 0.00, 0.00, 0.00, 0.00
1492, -358.88, -215.14, 0.00, 0.00, 0.00, 0.00, 0.00, 0.00, 0.00
1493, -362.10, -208.97, 0.00, 0.00, 0.00, 0.00, 0.00, 0.00, 0.00
1494, -357.11, -208.14, 0.00, 0.00, 0.00, 0.00, 0.00, 0.00, 0.00
1495, -360.51, -214.78, 0.00, 0.00, 0.00, 0.00, 0.00, 0.00, 0.00
1496, -358.45, -199.60, 0.00, 0.00, 0.00, 0.00, 0.00, 0.00, 0.00
1497, -351.75, -210.42, 0.00, 0.00, 0.00, 0.00, 0.00, 0.00, 0.00
1498, -356.62, -208.32, 0.00, 0.00, 0.00, 0.00, 0.00, 0.00, 0.00
1499, -357.61, -202.10, 0.00, 0.00, 0.00, 0.00, 0.00, 0.00, 0.00
1500, -356.44, -214.11, 0.00, 0.00, 0.00, 0.00, 0.00, 0.00, 0.00
1501, -359.82, -203.33, 0.00, 0.00, 0.00, 0.00, 0.00, 0.00, 0.00
1502, -356.44, -213.12, 0.00, 0.00, 0.00, 0.00, 0.00, 0.00, 0.00
1503, -353.54, -209.61, 0.00, 0.00, 0.00, 0.00, 0.00, 0.00, 0.00
1504, -355.46, -201.37, 0.00, 0.00, 0.00, 0.00, 0.00, 0.00, 0.00
1505, -353.74, -215.27, 0.00, 0.00, 0.00, 0.00, 0.00, 0.00, 0.00
1506, -354.19, -200.81, 0.00, 0.00, 0.00, 0.00, 0.00, 0.00, 0.00
1507, -357.11, -207.04, 0.00, 0.00, 0.00, 0.00, 0.00, 0.00, 0.00
1508, -355.15, -213.15, 0.00, 0.00, 0.00, 0.00, 0.00, 0.00, 0.00
1509, -355.37, -198.17, 0.00, 0.00, 0.00, 0.00, 0.00, 0.00, 0.00
1510, -349.20, -211.20, 0.00, 0.00, 0.00, 0.00, 0.00, 0.00, 0.00
1511, -351.93, -201.21, 0.00, 0.00, 0.00, 0.00, 0.00, 0.00, 0.00
1512, -350.70, -201.84, 0.00, 0.00, 0.00, 0.00, 0.00, 0.00, 0.00
1513, -346.14, -209.82, 0.00, 0.00, 0.00, 0.00, 0.00, 0.00, 0.00
1514, -348.82, -195.31, 0.00, 0.00, 0.00, 0.00, 0.00, 0.00, 0.00
1515, -348.37, -211.20, 0.00, 0.00, 0.00, 0.00, 0.00, 0.00, 0.00
1516, -348.11, -202.66, 0.00, 0.00, 0.00, 0.00, 0.00, 0.00, 0.00
1517, -350.97, -198.91, 0.00, 0.00, 0.00, 0.00, 0.00, 0.00, 0.00
1518, -347.17, -213.19, 0.00, 0.00, 0.00, 0.00, 0.00, 0.00, 0.00
1519, -352.04, -197.63, 0.00, 0.00, 0.00, 0.00, 0.00, 0.00, 0.00
1520, -348.84, -209.01, 0.00, 0.00, 0.00, 0.00, 0.00, 0.00, 0.00
1521, -352.73, -208.90, 0.00, 0.00, 0.00, 0.00, 0.00, 0.00, 0.00
1522, -356.60, -202.10, 0.00, 0.00, 0.00, 0.00, 0.00, 0.00, 0.00
1523, -352.29, -219.34, 0.00, 0.00, 0.00, 0.00, 0.00, 0.00, 0.00
1524, -359.28, -205.68, 0.00, 0.00, 0.00, 0.00, 0.00, 0.00, 0.00
1525, -357.52, -209.53, 0.00, 0.00, 0.00, 0.00, 0.00, 0.00, 0.00
1526, -356.31, -215.16, 0.00, 0.00, 0.00, 0.00, 0.00, 0.00, 0.00
1527, -361.41, -201.72, 0.00, 0.00, 0.00, 0.00, 0.00, 0.00, 0.00
1528, -356.02, -215.02, 0.00, 0.00, 0.00, 0.00, 0.00, 0.00, 0.00
1529, -360.56, -206.75, 0.00, 0.00, 0.00, 0.00, 0.00, 0.00, 0.00
1530, -361.27, -208.83, 0.00, 0.00, 0.00, 0.00, 0.00, 0.00, 0.00
1531, -358.90, -216.90, 0.00, 0.00, 0.00, 0.00, 0.00, 0.00, 0.00
1532, -360.87, -201.90, 0.00, 0.00, 0.00, 0.00, 0.00, 0.00, 0.00
1533, -356.89, -214.53, 0.00, 0.00, 0.00, 0.00, 0.00, 0.00, 0.00
1534, -359.64, -210.42, 0.00, 0.00, 0.00, 0.00, 0.00, 0.00, 0.00
1535, -356.38, -204.67, 0.00, 0.00, 0.00, 0.00, 0.00, 0.00, 0.00
1536, -351.73, -214.58, 0.00, 0.00, 0.00, 0.00, 0.00, 0.00, 0.00
1537, -357.65, -198.01, 0.00, 0.00, 0.00, 0.00, 0.00, 0.00, 0.00
1538, -353.43, -207.78, 0.00, 0.00, 0.00, 0.00, 0.00, 0.00, 0.00
1539, -352.15, -207.83, 0.00, 0.00, 0.00, 0.00, 0.00, 0.00, 0.00
1540, -356.44, -197.79, 0.00, 0.00, 0.00, 0.00, 0.00, 0.00, 0.00
1541, -348.55, -213.21, 0.00, 0.00, 0.00, 0.00, 0.00, 0.00, 0.00
1542, -355.53, -203.29, 0.00, 0.00, 0.00, 0.00, 0.00, 0.00, 0.00
1543, -350.79, -206.35, 0.00, 0.00, 0.00, 0.00, 0.00, 0.00, 0.00
1544, -352.17, -213.93, 0.00, 0.00, 0.00, 0.00, 0.00, 0.00, 0.00
1545, -354.41, -198.33, 0.00, 0.00, 0.00, 0.00, 0.00, 0.00, 0.00
1546, -349.13, -212.74, 0.00, 0.00, 0.00, 0.00, 0.00, 0.00, 0.00
1547, -354.54, -205.30, 0.00, 0.00, 0.00, 0.00, 0.00, 0.00, 0.00
1548, -354.48, -202.35, 0.00, 0.00, 0.00, 0.00, 0.00, 0.00, 0.00
1549, -354.41, -216.07, 0.00, 0.00, 0.00, 0.00, 0.00, 0.00, 0.00
1550, -360.53, -201.37, 0.00, 0.00, 0.00, 0.00, 0.00, 0.00, 0.00
1551, -355.48, -211.20, 0.00, 0.00, 0.00, 0.00, 0.00, 0.00, 0.00
1552, -361.58, -211.00, 0.00, 0.00, 0.00, 0.00, 0.00, 0.00, 0.00
1553, -359.39, -197.81, 0.00, 0.00, 0.00, 0.00, 0.00, 0.00, 0.00
1554, -356.42, -213.75, 0.00, 0.00, 0.00, 0.00, 0.00, 0.00, 0.00
1555, -362.52, -199.67, 0.00, 0.00, 0.00, 0.00, 0.00, 0.00, 0.00
1556, -359.95, -209.32, 0.00, 0.00, 0.00, 0.00, 0.00, 0.00, 0.00
1557, -362.17, -215.74, 0.00, 0.00, 0.00, 0.00, 0.00, 0.00, 0.00
1558, -362.61, -199.71, 0.00, 0.00, 0.00, 0.00, 0.00, 0.00, 0.00
1559, -355.46, -216.01, 0.00, 0.00, 0.00, 0.00, 0.00, 0.00, 0.00
1560, -362.70, -204.83, 0.00, 0.00, 0.00, 0.00, 0.00, 0.00, 0.00
1561, -357.43, -204.61, 0.00, 0.00, 0.00, 0.00, 0.00, 0.00, 0.00
1562, -357.27, -215.14, 0.00, 0.00, 0.00, 0.00, 0.00, 0.00, 0.00
1563, -361.81, -194.19, 0.00, 0.00, 0.00, 0.00, 0.00, 0.00, 0.00
1564, -354.23, -212.39, 0.00, 0.00, 0.00, 0.00, 0.00, 0.00, 0.00
1565, -362.21, -207.49, 0.00, 0.00, 0.00, 0.00, 0.00, 0.00, 0.00
1566, -354.25, -198.26, 0.00, 0.00, 0.00, 0.00, 0.00, 0.00, 0.00
1567, -353.94, -216.90, 0.00, 0.00, 0.00, 0.00, 0.00, 0.00, 0.00
1568, -360.42, -197.63, 0.00, 0.00, 0.00, 0.00, 0.00, 0.00, 0.00
1569, -353.45, -210.22, 0.00, 0.00, 0.00, 0.00, 0.00, 0.00, 0.00
1570, -360.78, -210.46, 0.00, 0.00, 0.00, 0.00, 0.00, 0.00, 0.00
1571, -360.53, -195.47, 0.00, 0.00, 0.00, 0.00, 0.00, 0.00, 0.00
1572, -358.43, -219.09, 0.00, 0.00, 0.00, 0.00, 0.00, 0.00, 0.00
1573, -364.94, -201.01, 0.00, 0.00, 0.00, 0.00, 0.00, 0.00, 0.00
1574, -362.88, -210.87, 0.00, 0.00, 0.00, 0.00, 0.00, 0.00, 0.00
1575, -365.52, -218.26, 0.00, 0.00, 0.00, 0.00, 0.00, 0.00, 0.00
1576, -369.56, -195.56, 0.00, 0.00, 0.00, 0.00, 0.00, 0.00, 0.00
1577, -361.70, -219.92, 0.00, 0.00, 0.00, 0.00, 0.00, 0.00, 0.00
1578, -366.93, -203.85, 0.00, 0.00, 0.00, 0.00, 0.00, 0.00, 0.00
1579, -366.99, -208.30, 0.00, 0.00, 0.00, 0.00, 0.00, 0.00, 0.00
1580, -362.32, -225.24, 0.00, 0.00, 0.00, 0.00, 0.00, 0.00, 0.00
1581, -363.91, -199.49, 0.00, 0.00, 0.00, 0.00, 0.00, 0.00, 0.00
1582, -361.67, -222.56, 0.00, 0.00, 0.00, 0.00, 0.00, 0.00, 0.00
1583, -360.33, -209.59, 0.00, 0.00, 0.00, 0.00, 0.00, 0.00, 0.00
1584, -357.00, -202.62, 0.00, 0.00, 0.00, 0.00, 0.00, 0.00, 0.00
1585, -354.90, -223.25, 0.00, 0.00, 0.00, 0.00, 0.00, 0.00, 0.00
1586, -358.83, -196.67, 0.00, 0.00, 0.00, 0.00, 0.00, 0.00, 0.00
1587, -352.58, -216.50, 0.00, 0.00, 0.00, 0.00, 0.00, 0.00, 0.00
1588, -355.86, -213.53, 0.00, 0.00, 0.00, 0.00, 0.00, 0.00, 0.00
1589, -358.99, -199.18, 0.00, 0.00, 0.00, 0.00, 0.00, 0.00, 0.00
1590, -353.87, -220.46, 0.00, 0.00, 0.00, 0.00, 0.00, 0.00, 0.00
1591, -359.08, -198.89, 0.00, 0.00, 0.00, 0.00, 0.00, 0.00, 0.00
1592, -352.71, -217.88, 0.00, 0.00, 0.00, 0.00, 0.00, 0.00, 0.00
1593, -357.56, -219.67, 0.00, 0.00, 0.00, 0.00, 0.00, 0.00, 0.00
1594, -361.09, -202.95, 0.00, 0.00, 0.00, 0.00, 0.00, 0.00, 0.00
1595, -353.72, -226.49, 0.00, 0.00, 0.00, 0.00, 0.00, 0.00, 0.00
1596, -366.88, -206.71, 0.00, 0.00, 0.00, 0.00, 0.00, 0.00, 0.00
1597, -364.24, -214.89, 0.00, 0.00, 0.00, 0.00, 0.00, 0.00, 0.00
1598, -362.25, -222.87, 0.00, 0.00, 0.00, 0.00, 0.00, 0.00, 0.00
1599, -367.69, -202.64, 0.00, 0.00, 0.00, 0.00, 0.00, 0.00, 0.00
1600, -359.28, -222.76, 0.00, 0.00, 0.00, 0.00, 0.00, 0.00, 0.00
1601, -365.50, -207.22, 0.00, 0.00, 0.00, 0.00, 0.00, 0.00, 0.00
1602, -362.55, -210.71, 0.00, 0.00, 0.00, 0.00, 0.00, 0.00, 0.00
1603, -361.43, -223.81, 0.00, 0.00, 0.00, 0.00, 0.00, 0.00, 0.00
1604, -366.35, -201.17, 0.00, 0.00, 0.00, 0.00, 0.00, 0.00, 0.00
1605, -357.65, -221.62, 0.00, 0.00, 0.00, 0.00, 0.00, 0.00, 0.00
1606, -363.62, -208.97, 0.00, 0.00, 0.00, 0.00, 0.00, 0.00, 0.00
1607, -361.58, -203.27, 0.00, 0.00, 0.00, 0.00, 0.00, 0.00, 0.00
1608, -358.68, -221.35, 0.00, 0.00, 0.00, 0.00, 0.00, 0.00, 0.00
1609, -359.53, -202.10, 0.00, 0.00, 0.00, 0.00, 0.00, 0.00, 0.00
1610, -358.68, -218.13, 0.00, 0.00, 0.00, 0.00, 0.00, 0.00, 0.00
1611, -359.86, -214.87, 0.00, 0.00, 0.00, 0.00, 0.00, 0.00, 0.00
1612, -360.56, -206.71, 0.00, 0.00, 0.00, 0.00, 0.00, 0.00, 0.00
1613, -352.24, -217.62, 0.00, 0.00, 0.00, 0.00, 0.00, 0.00, 0.00
1614, -364.38, -203.65, 0.00, 0.00, 0.00, 0.00, 0.00, 0.00, 0.00
1615, -360.87, -213.93, 0.00, 0.00, 0.00, 0.00, 0.00, 0.00, 0.00
1616, -360.94, -219.56, 0.00, 0.00, 0.00, 0.00, 0.00, 0.00, 0.00
1617, -366.66, -206.42, 0.00, 0.00, 0.00, 0.00, 0.00, 0.00, 0.00
1618, -362.79, -219.27, 0.00, 0.00, 0.00, 0.00, 0.00, 0.00, 0.00
1619, -367.19, -211.65, 0.00, 0.00, 0.00, 0.00, 0.00, 0.00, 0.00
1620, -358.39, -210.40, 0.00, 0.00, 0.00, 0.00, 0.00, 0.00, 0.00
1621, -357.11, -214.20, 0.00, 0.00, 0.00, 0.00, 0.00, 0.00, 0.00
1622, -364.09, -205.28, 0.00, 0.00, 0.00, 0.00, 0.00, 0.00, 0.00
1623, -355.84, -215.78, 0.00, 0.00, 0.00, 0.00, 0.00, 0.00, 0.00
1624, -362.10, -217.62, 0.00, 0.00, 0.00, 0.00, 0.00, 0.00, 0.00
1625, -362.01, -213.46, 0.00, 0.00, 0.00, 0.00, 0.00, 0.00, 0.00
1626, -356.09, -221.08, 0.00, 0.00, 0.00, 0.00, 0.00, 0.00, 0.00
1627, -363.19, -210.71, 0.00, 0.00, 0.00, 0.00, 0.00, 0.00, 0.00
1628, -355.17, -209.19, 0.00, 0.00, 0.00, 0.00, 0.00, 0.00, 0.00
1629, -358.59, -215.14, 0.00, 0.00, 0.00, 0.00, 0.00, 0.00, 0.00
1630, -356.62, -201.43, 0.00, 0.00, 0.00, 0.00, 0.00, 0.00, 0.00
1631, -351.50, -213.59, 0.00, 0.00, 0.00, 0.00, 0.00, 0.00, 0.00
1632, -358.90, -212.01, 0.00, 0.00, 0.00, 0.00, 0.00, 0.00, 0.00
1633, -354.92, -206.91, 0.00, 0.00, 0.00, 0.00, 0.00, 0.00, 0.00
1634, -355.66, -218.62, 0.00, 0.00, 0.00, 0.00, 0.00, 0.00, 0.00
1635, -357.72, -201.32, 0.00, 0.00, 0.00, 0.00, 0.00, 0.00, 0.00
1636, -360.47, -208.18, 0.00, 0.00, 0.00, 0.00, 0.00, 0.00, 0.00
1637, -362.39, -220.32, 0.00, 0.00, 0.00, 0.00, 0.00, 0.00, 0.00
1638, -359.37, -208.14, 0.00, 0.00, 0.00, 0.00, 0.00, 0.00, 0.00
1639, -368.62, -229.71, 0.00, 0.00, 0.00, 0.00, 0.00, 0.00, 0.00
1640, -378.62, -230.45, 0.00, 0.00, 0.00, 0.00, 0.00, 0.00, 0.00
1641, -384.36, -242.85, 0.00, 0.00, 0.00, 0.00, 0.00, 0.00, 0.00
1642, -392.30, -257.63, 0.00, 0.00, 0.00, 0.00, 0.00, 0.00, 0.00
1643, -401.66, -244.57, 0.00, 0.00, 0.00, 0.00, 0.00, 0.00, 0.00
1644, -403.72, -269.43, 0.00, 0.00, 0.00, 0.00, 0.00, 0.00, 0.00
1645, -406.62, -264.78, 0.00, 0.00, 0.00, 0.00, 0.00, 0.00, 0.00
1646, -405.86, -257.98, 0.00, 0.00, 0.00, 0.00, 0.00, 0.00, 0.00
1647, -406.49, -272.71, 0.00, 0.00, 0.00, 0.00, 0.00, 0.00, 0.00
1648, -411.94, -254.39, 0.00, 0.00, 0.00, 0.00, 0.00, 0.00, 0.00
1649, -406.24, -268.31, 0.00, 0.00, 0.00, 0.00, 0.00, 0.00, 0.00
1650, -408.57, -267.39, 0.00, 0.00, 0.00, 0.00, 0.00, 0.00, 0.00
1651, -409.01, -257.69, 0.00, 0.00, 0.00, 0.00, 0.00, 0.00, 0.00
1652, -405.28, -274.17, 0.00, 0.00, 0.00, 0.00, 0.00, 0.00, 0.00
1653, -408.19, -254.81, 0.00, 0.00, 0.00, 0.00, 0.00, 0.00, 0.00
1654, -404.99, -265.85, 0.00, 0.00, 0.00, 0.00, 0.00, 0.00, 0.00
1655, -413.44, -267.55, 0.00, 0.00, 0.00, 0.00, 0.00, 0.00, 0.00
1656, -409.98, -246.83, 0.00, 0.00, 0.00, 0.00, 0.00, 0.00, 0.00
1657, -401.21, -267.75, 0.00, 0.00, 0.00, 0.00, 0.00, 0.00, 0.00
1658, -409.33, -249.29, 0.00, 0.00, 0.00, 0.00, 0.00, 0.00, 0.00
1659, -403.65, -253.54, 0.00, 0.00, 0.00, 0.00, 0.00, 0.00, 0.00
1660, -398.82, -260.04, 0.00, 0.00, 0.00, 0.00, 0.00, 0.00, 0.00
1661, -407.45, -240.93, 0.00, 0.00, 0.00, 0.00, 0.00, 0.00, 0.00
1662, -405.39, -265.92, 0.00, 0.00, 0.00, 0.00, 0.00, 0.00, 0.00
1663, -408.25, -247.52, 0.00, 0.00, 0.00, 0.00, 0.00, 0.00, 0.00
1664, -405.13, -247.43, 0.00, 0.00, 0.00, 0.00, 0.00, 0.00, 0.00
1665, -402.04, -264.82, 0.00, 0.00, 0.00, 0.00, 0.00, 0.00, 0.00
1666, -408.12, -239.43, 0.00, 0.00, 0.00, 0.00, 0.00, 0.00, 0.00
1667, -399.47, -262.88, 0.00, 0.00, 0.00, 0.00, 0.00, 0.00, 0.00
1668, -408.01, -252.80, 0.00, 0.00, 0.00, 0.00, 0.00, 0.00, 0.00
1669, -407.49, -246.96, 0.00, 0.00, 0.00, 0.00, 0.00, 0.00, 0.00
1670, -406.18, -264.91, 0.00, 0.00, 0.00, 0.00, 0.00, 0.00, 0.00
1671, -414.67, -241.67, 0.00, 0.00, 0.00, 0.00, 0.00, 0.00, 0.00
1672, -407.00, -258.81, 0.00, 0.00, 0.00, 0.00, 0.00, 0.00, 0.00
1673, -413.95, -255.01, 0.00, 0.00, 0.00, 0.00, 0.00, 0.00, 0.00
1674, -412.86, -242.43, 0.00, 0.00, 0.00, 0.00, 0.00, 0.00, 0.00
1675, -408.84, -263.75, 0.00, 0.00, 0.00, 0.00, 0.00, 0.00, 0.00
1676, -413.86, -240.77, 0.00, 0.00, 0.00, 0.00, 0.00, 0.00, 0.00
1677, -407.32, -254.74, 0.00, 0.00, 0.00, 0.00, 0.00, 0.00, 0.00
1678, -409.93, -257.94, 0.00, 0.00, 0.00, 0.00, 0.00, 0.00, 0.00
1679, -407.85, -243.57, 0.00, 0.00, 0.00, 0.00, 0.00, 0.00, 0.00
1680, -404.16, -262.77, 0.00, 0.00, 0.00, 0.00, 0.00, 0.00, 0.00
1681, -408.48, -245.58, 0.00, 0.00, 0.00, 0.00, 0.00, 0.00, 0.00
1682, -406.20, -253.49, 0.00, 0.00, 0.00, 0.00, 0.00, 0.00, 0.00
1683, -409.28, -257.65, 0.00, 0.00, 0.00, 0.00, 0.00, 0.00, 0.00
1684, -410.11, -242.81, 0.00, 0.00, 0.00, 0.00, 0.00, 0.00, 0.00
1685, -404.37, -258.94, 0.00, 0.00, 0.00, 0.00, 0.00, 0.00, 0.00
1686, -410.58, -249.02, 0.00, 0.00, 0.00, 0.00, 0.00, 0.00, 0.00
1687, -406.15, -249.80, 0.00, 0.00, 0.00, 0.00, 0.00, 0.00, 0.00
1688, -404.63, -258.27, 0.00, 0.00, 0.00, 0.00, 0.00, 0.00, 0.00
1689, -409.48, -246.20, 0.00, 0.00, 0.00, 0.00, 0.00, 0.00, 0.00
1690, -403.29, -257.63, 0.00, 0.00, 0.00, 0.00, 0.00, 0.00, 0.00
1691, -410.36, -254.88, 0.00, 0.00, 0.00, 0.00, 0.00, 0.00, 0.00
1692, -405.86, -251.26, 0.00, 0.00, 0.00, 0.00, 0.00, 0.00, 0.00
1693, -403.56, -260.55, 0.00, 0.00, 0.00, 0.00, 0.00, 0.00, 0.00
1694, -409.17, -249.07, 0.00, 0.00, 0.00, 0.00, 0.00, 0.00, 0.00
1695, -401.08, -251.30, 0.00, 0.00, 0.00, 0.00, 0.00, 0.00, 0.00
1696, -401.62, -248.77, 0.00, 0.00, 0.00, 0.00, 0.00, 0.00, 0.00
1697, -402.87, -243.08, 0.00, 0.00, 0.00, 0.00, 0.00, 0.00, 0.00
1698, -397.30, -248.89, 0.00, 0.00, 0.00, 0.00, 0.00, 0.00, 0.00
1699, -399.90, -243.03, 0.00, 0.00, 0.00, 0.00, 0.00, 0.00, 0.00
1700, -396.74, -243.01, 0.00, 0.00, 0.00, 0.00, 0.00, 0.00, 0.00
1701, -401.75, -245.62, 0.00, 0.00, 0.00, 0.00, 0.00, 0.00, 0.00
1702, -398.69, -237.44, 0.00, 0.00, 0.00, 0.00, 0.00, 0.00, 0.00
1703, -398.49, -243.92, 0.00, 0.00, 0.00, 0.00, 0.00, 0.00, 0.00
1704, -404.59, -248.75, 0.00, 0.00, 0.00, 0.00, 0.00, 0.00, 0.00
1705, -403.74, -246.41, 0.00, 0.00, 0.00, 0.00, 0.00, 0.00, 0.00
1706, -403.25, -254.41, 0.00, 0.00, 0.00, 0.00, 0.00, 0.00, 0.00
1707, -405.01, -248.37, 0.00, 0.00, 0.00, 0.00, 0.00, 0.00, 0.00
1708, -405.73, -249.69, 0.00, 0.00, 0.00, 0.00, 0.00, 0.00, 0.00
1709, -402.76, -251.79, 0.00, 0.00, 0.00, 0.00, 0.00, 0.00, 0.00
1710, -415.32, -243.52, 0.00, 0.00, 0.00, 0.00, 0.00, 0.00, 0.00
1711, -415.65, -247.01, 0.00, 0.00, 0.00, 0.00, 0.00, 0.00, 0.00
1712, -396.03, -235.32, 0.00, 0.00, 0.00, 0.00, 0.00, 0.00, 0.00
1713, -393.88, -227.21, 0.00, 0.00, 0.00, 0.00, 0.00, 0.00, 0.00
1714, -385.79, -228.55, 0.00, 0.00, 0.00, 0.00, 0.00, 0.00, 0.00
1715, -368.58, -205.14, 0.00, 0.00, 0.00, 0.00, 0.00, 0.00, 0.00
1716, -357.94, -199.09, 0.00, 0.00, 0.00, 0.00, 0.00, 0.00, 0.00
1717, -353.85, -196.29, 0.00, 0.00, 0.00, 0.00, 0.00, 0.00, 0.00
1718, -351.95, -175.51, 0.00, 0.00, 0.00, 0.00, 0.00, 0.00, 0.00
1719, -340.71, -179.80, 0.00, 0.00, 0.00, 0.00, 0.00, 0.00, 0.00
1720, -339.10, -171.04, 0.00, 0.00, 0.00, 0.00, 0.00, 0.00, 0.00
1721, -337.67, -172.09, 0.00, 0.00, 0.00, 0.00, 0.00, 0.00, 0.00
1722, -339.55, -181.76, 0.00, 0.00, 0.00, 0.00, 0.00, 0.00, 0.00
1723, -342.74, -165.96, 0.00, 0.00, 0.00, 0.00, 0.00, 0.00, 0.00
1724, -336.01, -181.70, 0.00, 0.00, 0.00, 0.00, 0.00, 0.00, 0.00
1725, -342.14, -177.00, 0.00, 0.00, 0.00, 0.00, 0.00, 0.00, 0.00
1726, -342.59, -173.38, 0.00, 0.00, 0.00, 0.00, 0.00, 0.00, 0.00
1727, -342.50, -189.14, 0.00, 0.00, 0.00, 0.00, 0.00, 0.00, 0.00
1728, -349.02, -173.85, 0.00, 0.00, 0.00, 0.00, 0.00, 0.00, 0.00
1729, -345.11, -189.30, 0.00, 0.00, 0.00, 0.00, 0.00, 0.00, 0.00
1730, -344.60, -181.27, 0.00, 0.00, 0.00, 0.00, 0.00, 0.00, 0.00
1731, -343.41, -172.98, 0.00, 0.00, 0.00, 0.00, 0.00, 0.00, 0.00
1732, -339.41, -190.53, 0.00, 0.00, 0.00, 0.00, 0.00, 0.00, 0.00
1733, -346.41, -172.71, 0.00, 0.00, 0.00, 0.00, 0.00, 0.00, 0.00
1734, -343.79, -181.94, 0.00, 0.00, 0.00, 0.00, 0.00, 0.00, 0.00
1735, -345.83, -186.17, 0.00, 0.00, 0.00, 0.00, 0.00, 0.00, 0.00
1736, -349.54, -173.70, 0.00, 0.00, 0.00, 0.00, 0.00, 0.00, 0.00
1737, -346.99, -195.82, 0.00, 0.00, 0.00, 0.00, 0.00, 0.00, 0.00
1738, -351.44, -177.32, 0.00, 0.00, 0.00, 0.00, 0.00, 0.00, 0.00
1739, -346.27, -187.87, 0.00, 0.00, 0.00, 0.00, 0.00, 0.00, 0.00
1740, -346.83, -192.43, 0.00, 0.00, 0.00, 0.00, 0.00, 0.00, 0.00
1741, -355.17, -176.27, 0.00, 0.00, 0.00, 0.00, 0.00, 0.00, 0.00
1742, -345.54, -195.47, 0.00, 0.00, 0.00, 0.00, 0.00, 0.00, 0.00
1743, -352.04, -182.08, 0.00, 0.00, 0.00, 0.00, 0.00, 0.00, 0.00
1744, -352.22, -183.69, 0.00, 0.00, 0.00, 0.00, 0.00, 0.00, 0.00
1745, -348.37, -194.80, 0.00, 0.00, 0.00, 0.00, 0.00, 0.00, 0.00
1746, -356.55, -178.61, 0.00, 0.00, 0.00, 0.00, 0.00, 0.00, 0.00
1747, -346.21, -197.10, 0.00, 0.00, 0.00, 0.00, 0.00, 0.00, 0.00
1748, -353.14, -183.46, 0.00, 0.00, 0.00, 0.00, 0.00, 0.00, 0.00
1749, -351.64, -183.78, 0.00, 0.00, 0.00, 0.00, 0.00, 0.00, 0.00
1750, -346.09, -197.46, 0.00, 0.00, 0.00, 0.00, 0.00, 0.00, 0.00
1751, -355.82, -178.41, 0.00, 0.00, 0.00, 0.00, 0.00, 0.00, 15.00
1752, -342.88, -191.93, 0.00, 0.00, 0.00, 0.00, 0.00, 0.00, 15.00
1753, -348.06, -182.57, 0.00, 0.00, 0.00, 0.00, 0.00, 0.00, 15.00
1754, -347.01, -178.34, 0.00, 0.00, 0.00, 0.00, 0.00, 0.00, 15.00
1755, -342.29, -196.20, 0.00, 0.00, 0.00, 0.00, 0.00, 0.00, 15.00
1756, -349.80, -176.31, 0.00, 0.00, 0.00, 0.00, 0.00, 0.00, 15.00
1757, -342.36, -186.64, 0.00, 0.00, 0.00, 0.00, 0.00, 0.00, 15.00
1758, -347.10, -189.27, 0.00, 0.00, 0.00, 0.00, 0.00, 0.00, 15.00
1759, -350.68, -178.61, 0.00, 0.00, 0.00, 0.00, 0.00, 0.00, 15.00
1760, -342.47, -193.83, 0.00, 0.00, 0.00, 0.00, 0.00, 0.00, 15.00
1761, -348.44, -179.62, 0.00, 0.00, 0.00, 0.00, 0.00, 0.00, 15.00
1762, -346.56, -189.39, 0.00, 0.00, 0.00, 0.00, 0.00, 0.00, 15.00
1763, -347.30, -194.50, 0.00, 0.00, 0.00, 0.00, 0.00, 0.00, 15.00
1764, -350.65, -186.03, 0.00, 0.00, 0.00, 0.00, 0.00, 0.00, 15.00
1765, -344.04, -198.89, 0.00, 0.00, 0.00, 0.00, 0.00, 0.00, 15.00
1766, -353.43, -188.92, 0.00, 0.00, 0.00, 0.00, 0.00, 0.00, 15.00
1767, -343.26, -187.96, 0.00, 0.00, 0.00, 0.00, 0.00, 0.00, 15.00
1768, -345.29, -196.40, 0.00, 0.00, 0.00, 0.00, 0.00, 0.00, 15.00
1769, -349.78, -183.26, 0.00, 0.00, 0.00, 0.00, 0.00, 0.00, 15.00
1770, -344.13, -195.15, 0.00, 0.00, 0.00, 0.00, 0.00, 0.00, 15.00
1771, -350.25, -193.19, 0.00, 0.00, 0.00, 0.00, 0.00, 0.00, 15.00
1772, -347.84, -189.79, 0.00, 0.00, 0.00, 0.00, 0.00, 0.00, 15.00
1773, -347.30, -196.99, 0.00, 0.00, 0.00, 0.00, 0.00, 0.00, 15.00
1774, -349.02, -188.40, 0.00, 0.00, 0.00, 0.00, 0.00, 0.00, 15.00
1775, -339.95, -191.13, 0.00, 0.00, 0.00, 0.00, 0.00, 0.00, 15.00
1776, -348.20, -192.81, 0.00, 0.00, 0.00, 0.00, 0.00, 0.00, 15.00
1777, -344.80, -187.69, 0.00, 0.00, 0.00, 0.00, 0.00, 0.00, 15.00
1778, -342.43, -195.09, 0.00, 0.00, 0.00, 0.00, 0.00, 0.00, 15.00
1779, -346.81, -190.71, 0.00, 0.00, 0.00, 0.00, 0.00, 0.00, 15.00
1780, -344.24, -191.82, 0.00, 0.00, 0.00, 0.00, 0.00, 0.00, 15.00
1781, -344.98, -194.37, 0.00, 0.00, 0.00, 0.00, 0.00, 0.00, 15.00
1782, -346.05, -190.44, 0.00, 0.00, 0.00, 0.00, 0.00, 0.00, 15.00
1783, -346.50, -194.75, 0.00, 0.00, 0.00, 0.00, 0.00, 0.00, 15.00
1784, -346.27, -194.86, 0.00, 0.00, 0.00, 0.00, 0.00, 0.00, 15.00
1785, -345.18, -189.81, 0.00, 0.00, 0.00, 0.00, 0.00, 0.00, 15.00
1786, -346.81, -198.33, 0.00, 0.00, 0.00, 0.00, 0.00, 0.00, 15.00
1787, -347.19, -191.76, 0.00, 0.00, 0.00, 0.00, 0.00, 0.00, 15.00
1788, -347.95, -197.28, 0.00, 0.00, 0.00, 0.00, 0.00, 0.00, 15.00
1789, -347.48, -198.73, 0.00, 0.00, 0.00, 0.00, 0.00, 0.00, 15.00
1790, -349.89, -188.96, 0.00, 0.00, 0.00, 0.00, 0.00, 0.00, 15.00
1791, -344.24, -195.73, 0.00, 0.00, 0.00, 0.00, 0.00, 0.00, 15.00
1792, -344.02, -189.48, 0.00, 0.00, 0.00, 0.00, 0.00, 0.00, 15.00
1793, -348.64, -190.15, 0.00, 0.00, 0.00, 0.00, 0.00, 0.00, 15.00
1794, -347.17, -197.97, 0.00, 0.00, 0.00, 0.00, 0.00, 0.00, 15.00
1795, -352.35, -188.51, 0.00, 0.00, 0.00, 0.00, 0.00, 0.00, 15.00
1796, -353.96, -198.51, 0.00, 0.00, 0.00, 0.00, 0.00, 0.00, 15.00
1797, -349.11, -194.06, 0.00, 0.00, 0.00, 0.00, 0.00, 0.00, 15.00
1798, -344.11, -183.64, 0.00, 0.00, 0.00, 0.00, 0.00, 0.00, 15.00
1799, -345.96, -200.50, 0.00, 0.00, 0.00, 0.00, 0.00, 0.00, 15.00
1800, -349.29, -196.83, 0.00, 0.00, 0.00, 0.00, 0.00, 0.00, 15.00
1801, -349.25, -203.96, 0.00, 0.00, 0.00, 0.00, 0.00, 0.00, 15.00
1802, -359.42, -210.84, 0.00, 0.00, 0.00, 0.00, 0.00, 0.00, 15.00
1803, -362.43, -203.49, 0.00, 0.00, 0.00, 0.00, 0.00, 0.00, 15.00
1804, -355.15, -213.28, 0.00, 0.00, 0.00, 0.00, 0.00, 0.00, 15.00
1805, -356.02, -200.14, 0.00, 0.00, 0.00, 0.00, 0.00, 0.00, 15.00
1806, -348.80, -201.88, 0.00, 0.00, 0.00, 0.00, 0.00, 0.00, 15.00
1807, -351.37, -210.49, 0.00, 0.00, 0.00, 0.00, 0.00, 0.00, 15.00
1808, -353.83, -199.76, 0.00, 0.00, 0.00, 0.00, 0.00, 0.00, 15.00
1809, -349.69, -211.65, 0.00, 0.00, 0.00, 0.00, 0.00, 0.00, 15.00
1810, -354.57, -205.08, 0.00, 0.00, 0.00, 0.00, 0.00, 0.00, 15.00
1811, -353.67, -202.98, 0.00, 0.00, 0.00, 0.00, 0.00, 0.00, 15.00
1812, -351.84, -214.42, 0.00, 0.00, 0.00, 0.00, 0.00, 0.00, 15.00
1813, -358.45, -204.67, 0.00, 0.00, 0.00, 0.00, 0.00, 0.00, 15.00
1814, -353.11, -214.33, 0.00, 0.00, 0.00, 0.00, 0.00, 0.00, 15.00
1815, -357.07, -211.51, 0.00, 0.00, 0.00, 0.00, 0.00, 0.00, 15.00
1816, -354.70, -202.89, 0.00, 0.00, 0.00, 0.00, 0.00, 0.00, 15.00
1817, -349.87, -213.19, 0.00, 0.00, 0.00, 0.00, 0.00, 0.00, 15.00
1818, -355.55, -201.52, 0.00, 0.00, 0.00, 0.00, 0.00, 0.00, 15.00
1819, -353.69, -207.80, 0.00, 0.00, 0.00, 0.00, 0.00, 0.00, 15.00
1820, -353.60, -205.95, 0.00, 0.00, 0.00, 0.00, 0.00, 0.00, 15.00
1821, -354.50, -199.04, 0.00, 0.00, 0.00, 0.00, 0.00, 0.00, 15.00
1822, -346.21, -207.18, 0.00, 0.00, 0.00, 0.00, 0.00, 0.00, 15.00
1823, -349.89, -196.14, 0.00, 0.00, 0.00, 0.00, 0.00, 0.00, 15.00
1824, -342.61, -197.41, 0.00, 0.00, 0.00, 0.00, 0.00, 0.00, 15.00
1825, -346.72, -203.87, 0.00, 0.00, 0.00, 0.00, 0.00, 0.00, 15.00
1826, -352.93, -193.28, 0.00, 0.00, 0.00, 0.00, 0.00, 0.00, 15.00
1827, -345.71, -203.65, 0.00, 0.00, 0.00, 0.00, 0.00, 0.00, 15.00
1828, -350.90, -198.48, 0.00, 0.00, 0.00, 0.00, 0.00, 0.00, 15.00
1829, -345.96, -193.54, 0.00, 0.00, 0.00, 0.00, 0.00, 0.00, 15.00
1830, -345.40, -201.86, 0.00, 0.00, 0.00, 0.00, 0.00, 0.00, 15.00
1831, -348.98, -194.10, 0.00, 0.00, 0.00, 0.00, 0.00, 0.00, 15.00
1832, -343.03, -200.16, 0.00, 0.00, 0.00, 0.00, 0.00, 0.00, 15.00
1833, -348.87, -197.61, 0.00, 0.00, 0.00, 0.00, 0.00, 0.00, 15.00
1834, -348.73, -195.38, 0.00, 0.00, 0.00, 0.00, 0.00, 0.00, 15.00
1835, -345.98, -207.67, 0.00, 0.00, 0.00, 0.00, 0.00, 0.00, 15.00
1836, -355.44, -198.44, 0.00, 0.00, 0.00, 0.00, 0.00, 0.00, 15.00
1837, -349.65, -202.64, 0.00, 0.00, 0.00, 0.00, 0.00, 0.00, 15.00
1838, -357.31, -208.63, 0.00, 0.00, 0.00, 0.00, 0.00, 0.00, 15.00
1839, -358.05, -200.00, 0.00, 0.00, 0.00, 0.00, 0.00, 0.00, 15.00
1840, -351.59, -209.84, 0.00, 0.00, 0.00, 0.00, 0.00, 0.00, 15.00
1841, -359.39, -206.51, 0.00, 0.00, 0.00, 0.00, 0.00, 0.00, 15.00
1842, -352.60, -204.70, 0.00, 0.00, 0.00, 0.00, 0.00, 0.00, 15.00
1843, -353.09, -208.34, 0.00, 0.00, 0.00, 0.00, 0.00, 0.00, 15.00
1844, -357.23, -201.61, 0.00, 0.00, 0.00, 0.00, 0.00, 0.00, 15.00
1845, -353.36, -205.50, 0.00, 0.00, 0.00, 0.00, 0.00, 0.00, 15.00
1846, -354.50, -198.22, 0.00, 0.00, 0.00, 0.00, 0.00, 0.00, 15.00
1847, -353.02, -197.14, 0.00, 0.00, 0.00, 0.00, 0.00, 0.00, 15.00
1848, -350.92, -203.65, 0.00, 0.00, 0.00, 0.00, 0.00, 0.00, 15.00
1849, -352.55, -196.29, 0.00, 0.00, 0.00, 0.00, 0.00, 0.00, 15.00
1850, -347.70, -198.66, 0.00, 0.00, 0.00, 0.00, 0.00, 0.00, 15.00
1851, -352.93, -200.38, 0.00, 0.00, 0.00, 0.00, 0.00, 0.00, 15.00
1852, -351.06, -197.30, 0.00, 0.00, 0.00, 0.00, 0.00, 0.00, 15.00
