%OpenBCI Raw EEG Data
%
%Sample Rate = 250.0 Hz
%First Column = SampleIndex
%Other Columns = EEG data in microvolts
37133, 36.99, -32.25, 0.00, 0.00, 0.00, 0.00, 0.00, 0.00, 0.00
37134, 32.52, -19.94, 0.00, 0.00, 0.00, 0.00, 0.00, 0.00, 0.00
37133, 36.99, -32.25, 0.00, 0.00, 0.00, 0.00, 0.00, 0.00, 0.00
37134, 32.52, -19.94, 0.00, 0.00, 0.00, 0.00, 0.00, 0.00, 0.00
1, 1233.50, 241.51, 0.00, 0.00, 0.00, 0.00, 0.00, 0.00, 0.00
2, 1080.71, 135.70, 0.00, 0.00, 0.00, 0.00, 0.00, 0.00, 0.00
3, 1509.35, 235.10, 0.00, 0.00, 0.00, 0.00, 0.00, 0.00, 0.00
4, 1832.28, 367.26, 0.00, 0.00, 0.00, 0.00, 0.00, 0.00, 0.00
5, 1705.30, 355.88, 0.00, 0.00, 0.00, 0.00, 0.00, 0.00, 0.00
6, 1410.04, 269.63, 0.00, 0.00, 0.00, 0.00, 0.00, 0.00, 0.00
7, 1339.76, 242.81, 0.00, 0.00, 0.00, 0.00, 0.00, 0.00, 0.00
8, 1501.21, 257.65, 0.00, 0.00, 0.00, 0.00, 0.00, 0.00, 0.00
9, 1611.00, 288.16, 0.00, 0.00, 0.00, 0.00, 0.00, 0.00, 0.00
10, 1562.45, 266.01, 0.00, 0.00, 0.00, 0.00, 0.00, 0.00, 0.00
11, 1460.15, 230.11, 0.00, 0.00, 0.00, 0.00, 0.00, 0.00, 0.00
12, 1423.54, 234.45, 0.00, 0.00, 0.00, 0.00, 0.00, 0.00, 0.00
13, 1457.49, 226.22, 0.00, 0.00, 0.00, 0.00, 0.00, 0.00, 0.00
14, 1479.69, 216.86, 0.00, 0.00, 0.00, 0.00, 0.00, 0.00, 0.00
15, 1470.50, 207.27, 0.00, 0.00, 0.00, 0.00, 0.00, 0.00, 0.00
16, 1455.57, 210.08, 0.00, 0.00, 0.00, 0.00, 0.00, 0.00, 0.00
17, 1441.15, 227.88, 0.00, 0.00, 0.00, 0.00, 0.00, 0.00, 0.00
18, 1434.49, 217.44, 0.00, 0.00, 0.00, 0.00, 0.00, 0.00, 0.00
19, 1429.28, 205.14, 0.00, 0.00, 0.00, 0.00, 0.00, 0.00, 0.00
20, 1431.52, 205.32, 0.00, 0.00, 0.00, 0.00, 0.00, 0.00, 0.00
21, 1440.17, 210.89, 0.00, 0.00, 0.00, 0.00, 0.00, 0.00, 0.00
22, 1437.91, 230.74, 0.00, 0.00, 0.00, 0.00, 0.00, 0.00, 0.00
23, 1422.82, 223.61, 0.00, 0.00, 0.00, 0.00, 0.00, 0.00, 0.00
24, 1407.89, 208.54, 0.00, 0.00, 0.00, 0.00, 0.00, 0.00, 0.00
25, 1411.11, 207.09, 0.00, 0.00, 0.00, 0.00, 0.00, 0.00, 0.00
26, 1425.55, 213.46, 0.00, 0.00, 0.00, 0.00, 0.00, 0.00, 0.00
27, 1423.67, 232.55, 0.00, 0.00, 0.00, 0.00, 0.00, 0.00, 0.00
28, 1410.69, 224.88, 0.00, 0.00, 0.00, 0.00, 0.00, 0.00, 0.00
29, 1392.22, 207.13, 0.00, 0.00, 0.00, 0.00, 0.00, 0.00, 0.00
30, 1393.70, 209.46, 0.00, 0.00, 0.00, 0.00, 0.00, 0.00, 0.00
31, 1406.66, 216.43, 0.00, 0.00, 0.00, 0.00, 0.00, 0.00, 0.00
32, 1404.87, 225.48, 0.00, 0.00, 0.00, 0.00, 0.00, 0.00, 0.00
33, 1388.31, 219.11, 0.00, 0.00, 0.00, 0.00, 0.00, 0.00, 0.00
34, 1376.71, 209.28, 0.00, 0.00, 0.00, 0.00, 0.00, 0.00, 0.00
35, 1370.47, 208.63, 0.00, 0.00, 0.00, 0.00, 0.00, 0.00, 0.00
36, 1384.18, 213.21, 0.00, 0.00, 0.00, 0.00, 0.00, 0.00, 0.00
37, 1380.91, 220.08, 0.00, 0.00, 0.00, 0.00, 0.00, 0.00, 0.00
38, 1366.92, 216.36, 0.00, 0.00, 0.00, 0.00, 0.00, 0.00, 0.00
39, 1360.57, 206.15, 0.00, 0.00, 0.00, 0.00, 0.00, 0.00, 0.00
40, 1354.63, 205.21, 0.00, 0.00, 0.00, 0.00, 0.00, 0.00, 0.00
41, 1358.92, 209.70, 0.00, 0.00, 0.00, 0.00, 0.00, 0.00, 0.00
42, 1360.13, 213.10, 0.00, 0.00, 0.00, 0.00, 0.00, 0.00, 0.00
43, 1346.94, 210.55, 0.00, 0.00, 0.00, 0.00, 0.00, 0.00, 0.00
44, 1342.65, 209.15, 0.00, 0.00, 0.00, 0.00, 0.00, 0.00, 0.00
45, 1340.01, 205.12, 0.00, 0.00, 0.00, 0.00, 0.00, 0.00, 0.00
46, 1342.56, 211.74, 0.00, 0.00, 0.00, 0.00, 0.00, 0.00, 0.00
47, 1341.28, 211.96, 0.00, 0.00, 0.00, 0.00, 0.00, 0.00, 0.00
48, 1332.30, 209.53, 0.00, 0.00, 0.00, 0.00, 0.00, 0.00, 0.00
49, 1329.33, 213.28, 0.00, 0.00, 0.00, 0.00, 0.00, 0.00, 0.00
50, 1324.03, 205.05, 0.00, 0.00, 0.00, 0.00, 0.00, 0.00, 0.00
51, 1325.57, 210.49, 0.00, 0.00, 0.00, 0.00, 0.00, 0.00, 0.00
52, 1322.93, 210.71, 0.00, 0.00, 0.00, 0.00, 0.00, 0.00, 0.00
53, 1315.85, 203.47, 0.00, 0.00, 0.00, 0.00, 0.00, 0.00, 0.00
54, 1312.38, 209.75, 0.00, 0.00, 0.00, 0.00, 0.00, 0.00, 0.00
55, 1309.25, 203.91, 0.00, 0.00, 0.00, 0.00, 0.00, 0.00, 0.00
56, 1307.44, 207.16, 0.00, 0.00, 0.00, 0.00, 0.00, 0.00, 0.00
57, 1304.25, 208.47, 0.00, 0.00, 0.00, 0.00, 0.00, 0.00, 0.00
58, 1300.74, 202.73, 0.00, 0.00, 0.00, 0.00, 0.00, 0.00, 0.00
59, 1294.88, 207.78, 0.00, 0.00, 0.00, 0.00, 0.00, 0.00, 0.00
60, 1292.02, 199.87, 0.00, 0.00, 0.00, 0.00, 0.00, 0.00, 0.00
61, 1290.48, 202.69, 0.00, 0.00, 0.00, 0.00, 0.00, 0.00, 0.00
62, 1288.42, 206.82, 0.00, 0.00, 0.00, 0.00, 0.00, 0.00, 0.00
63, 1282.45, 193.86, 0.00, 0.00, 0.00, 0.00, 0.00, 0.00, 0.00
64, 1276.24, 201.61, 0.00, 0.00, 0.00, 0.00, 0.00, 0.00, 0.00
65, 1273.71, 194.04, 0.00, 0.00, 0.00, 0.00, 0.00, 0.00, 0.00
66, 1270.50, 193.39, 0.00, 0.00, 0.00, 0.00, 0.00, 0.00, 0.00
67, 1266.20, 202.15, 0.00, 0.00, 0.00, 0.00, 0.00, 0.00, 0.00
68, 1263.77, 189.30, 0.00, 0.00, 0.00, 0.00, 0.00, 0.00, 0.00
69, 1256.03, 200.70, 0.00, 0.00, 0.00, 0.00, 0.00, 0.00, 0.00
70, 1258.87, 195.98, 0.00, 0.00, 0.00, 0.00, 0.00, 0.00, 0.00
71, 1253.04, 190.28, 0.00, 0.00, 0.00, 0.00, 0.00, 0.00, 0.00
72, 1252.77, 204.23, 0.00, 0.00, 0.00, 0.00, 0.00, 0.00, 0.00
73, 1256.06, 193.52, 0.00, 0.00, 0.00, 0.00, 0.00, 0.00, 0.00
74, 1250.02, 203.56, 0.00, 0.00, 0.00, 0.00, 0.00, 0.00, 0.00
75, 1244.46, 200.47, 0.00, 0.00, 0.00, 0.00, 0.00, 0.00, 0.00
76, 1245.13, 191.42, 0.00, 0.00, 0.00, 0.00, 0.00, 0.00, 0.00
77, 1235.40, 205.73, 0.00, 0.00, 0.00, 0.00, 0.00, 0.00, 0.00
78, 1233.23, 184.11, 0.00, 0.00, 0.00, 0.00, 0.00, 0.00, 0.00
79, 1226.66, 190.12, 0.00, 0.00, 0.00, 0.00, 0.00, 0.00, 0.00
80, 1223.22, 192.69, 0.00, 0.00, 0.00, 0.00, 0.00, 0.00, 0.00
81, 1221.75, 182.41, 0.00, 0.00, 0.00, 0.00, 0.00, 0.00, 0.00
82, 1216.38, 200.63, 0.00, 0.00, 0.00, 0.00, 0.00, 0.00, 0.00
83, 1216.56, 185.01, 0.00, 0.00, 0.00, 0.00, 0.00, 0.00, 0.00
84, 1211.93, 190.66, 0.00, 0.00, 0.00, 0.00, 0.00, 0.00, 0.00
85, 1210.59, 195.47, 0.00, 0.00, 0.00, 0.00, 0.00, 0.00, 0.00
86, 1209.39, 180.65, 0.00, 0.00, 0.00, 0.00, 0.00, 0.00, 0.00
87, 1200.49, 197.08, 0.00, 0.00, 0.00, 0.00, 0.00, 0.00, 0.00
88, 1202.26, 184.18, 0.00, 0.00, 0.00, 0.00, 0.00, 0.00, 0.00
89, 1197.61, 188.96, 0.00, 0.00, 0.00, 0.00, 0.00, 0.00, 0.00
90, 1194.43, 196.43, 0.00, 0.00, 0.00, 0.00, 0.00, 0.00, 0.00
91, 1194.97, 180.51, 0.00, 0.00, 0.00, 0.00, 0.00, 0.00, 0.00
92, 1184.87, 196.32, 0.00, 0.00, 0.00, 0.00, 0.00, 0.00, 0.00
93, 1185.47, 185.90, 0.00, 0.00, 0.00, 0.00, 0.00, 0.00, 0.00
94, 1179.95, 184.98, 0.00, 0.00, 0.00, 0.00, 0.00, 0.00, 0.00
95, 1176.19, 196.67, 0.00, 0.00, 0.00, 0.00, 0.00, 0.00, 0.00
96, 1178.18, 175.77, 0.00, 0.00, 0.00, 0.00, 0.00, 0.00, 0.00
97, 1171.21, 189.54, 0.00, 0.00, 0.00, 0.00, 0.00, 0.00, 0.00
98, 1172.39, 185.70, 0.00, 0.00, 0.00, 0.00, 0.00, 0.00, 0.00
99, 1166.76, 180.74, 0.00, 0.00, 0.00, 0.00, 0.00, 0.00, 0.00
100, 1159.68, 189.72, 0.00, 0.00, 0.00, 0.00, 0.00, 0.00, 0.00
101, 1162.11, 171.33, 0.00, 0.00, 0.00, 0.00, 0.00, 0.00, 0.00
102, 1155.36, 184.69, 0.00, 0.00, 0.00, 0.00, 0.00, 0.00, 0.00
103, 1151.23, 179.60, 0.00, 0.00, 0.00, 0.00, 0.00, 0.00, 0.00
104, 1151.47, 173.74, 0.00, 0.00, 0.00, 0.00, 0.00, 0.00, 0.00
105, 1145.71, 189.92, 0.00, 0.00, 0.00, 0.00, 0.00, 0.00, 0.00
106, 1138.91, 177.41, 0.00, 0.00, 0.00, 0.00, 0.00, 0.00, 0.00
107, 1128.92, 184.25, 0.00, 0.00, 0.00, 0.00, 0.00, 0.00, 0.00
108, 1134.06, 190.53, 0.00, 0.00, 0.00, 0.00, 0.00, 0.00, 0.00
109, 1129.01, 186.79, 0.00, 0.00, 0.00, 0.00, 0.00, 0.00, 0.00
110, 1130.71, 204.70, 0.00, 0.00, 0.00, 0.00, 0.00, 0.00, 0.00
111, 1139.67, 206.84, 0.00, 0.00, 0.00, 0.00, 0.00, 0.00, 0.00
112, 1141.66, 221.30, 0.00, 0.00, 0.00, 0.00, 0.00, 0.00, 0.00
113, 1145.26, 237.13, 0.00, 0.00, 0.00, 0.00, 0.00, 0.00, 0.00
114, 1150.51, 235.68, 0.00, 0.00, 0.00, 0.00, 0.00, 0.00, 0.00
115, 1151.52, 246.16, 0.00, 0.00, 0.00, 0.00, 0.00, 0.00, 0.00
116, 1151.92, 249.60, 0.00, 0.00, 0.00, 0.00, 0.00, 0.00, 0.00
117, 1149.37, 249.58, 0.00, 0.00, 0.00, 0.00, 0.00, 0.00, 0.00
118, 1146.24, 250.76, 0.00, 0.00, 0.00, 0.00, 0.00, 0.00, 0.00
119, 1138.20, 241.96, 0.00, 0.00, 0.00, 0.00, 0.00, 0.00, 0.00
120, 1132.12, 240.88, 0.00, 0.00, 0.00, 0.00, 0.00, 0.00, 0.00
121, 1132.52, 241.85, 0.00, 0.00, 0.00, 0.00, 0.00, 0.00, 0.00
122, 1126.17, 237.96, 0.00, 0.00, 0.00, 0.00, 0.00, 0.00, 0.00
123, 1122.77, 236.62, 0.00, 0.00, 0.00, 0.00, 0.00, 0.00, 0.00
124, 1121.79, 235.12, 0.00, 0.00, 0.00, 0.00, 0.00, 0.00, 0.00
125, 1115.42, 232.15, 0.00, 0.00, 0.00, 0.00, 0.00, 0.00, 0.00
126, 1111.24, 232.35, 0.00, 0.00, 0.00, 0.00, 0.00, 0.00, 0.00
127, 1107.53, 226.78, 0.00, 0.00, 0.00, 0.00, 0.00, 0.00, 0.00
128, 1105.05, 229.60, 0.00, 0.00, 0.00, 0.00, 0.00, 0.00, 0.00
129, 1101.85, 229.91, 0.00, 0.00, 0.00, 0.00, 0.00, 0.00, 0.00
130, 1099.10, 221.62, 0.00, 0.00, 0.00, 0.00, 0.00, 0.00, 0.00
131, 1095.41, 228.66, 0.00, 0.00, 0.00, 0.00, 0.00, 0.00, 0.00
132, 1094.16, 225.95, 0.00, 0.00, 0.00, 0.00, 0.00, 0.00, 0.00
133, 1090.85, 222.80, 0.00, 0.00, 0.00, 0.00, 0.00, 0.00, 0.00
134, 1089.33, 229.42, 0.00, 0.00, 0.00, 0.00, 0.00, 0.00, 0.00
135, 1089.38, 221.39, 0.00, 0.00, 0.00, 0.00, 0.00, 0.00, 0.00
136, 1084.86, 231.56, 0.00, 0.00, 0.00, 0.00, 0.00, 0.00, 0.00
137, 1086.81, 230.29, 0.00, 0.00, 0.00, 0.00, 0.00, 0.00, 0.00
138, 1082.63, 221.57, 0.00, 0.00, 0.00, 0.00, 0.00, 0.00, 0.00
139, 1074.60, 234.49, 0.00, 0.00, 0.00, 0.00, 0.00, 0.00, 0.00
140, 1072.95, 219.76, 0.00, 0.00, 0.00, 0.00, 0.00, 0.00, 0.00
141, 1068.12, 224.14, 0.00, 0.00, 0.00, 0.00, 0.00, 0.00, 0.00
142, 1066.22, 223.88, 0.00, 0.00, 0.00, 0.00, 0.00, 0.00, 0.00
143, 1065.44, 211.94, 0.00, 0.00, 0.00, 0.00, 0.00, 0.00, 0.00
144, 1061.60, 231.50, 0.00, 0.00, 0.00, 0.00, 0.00, 0.00, 0.00
145, 1062.42, 221.44, 0.00, 0.00, 0.00, 0.00, 0.00, 0.00, 0.00
146, 1055.29, 224.34, 0.00, 0.00, 0.00, 0.00, 0.00, 0.00, 0.00
147, 1049.41, 229.82, 0.00, 0.00, 0.00, 0.00, 0.00, 0.00, 0.00
148, 1049.26, 213.53, 0.00, 0.00, 0.00, 0.00, 0.00, 0.00, 0.00
149, 1042.28, 226.36, 0.00, 0.00, 0.00, 0.00, 0.00, 0.00, 0.00
150, 1043.11, 216.97, 0.00, 0.00, 0.00, 0.00, 0.00, 0.00, 0.00
151, 1037.77, 213.64, 0.00, 0.00, 0.00, 0.00, 0.00, 0.00, 0.00
152, 1031.67, 224.41, 0.00, 0.00, 0.00, 0.00, 0.00, 0.00, 0.00
153, 1034.04, 206.35, 0.00, 0.00, 0.00, 0.00, 0.00, 0.00, 0.00
154, 1025.27, 224.43, 0.00, 0.00, 0.00, 0.00, 0.00, 0.00, 0.00
155, 1028.18, 219.25, 0.00, 0.00, 0.00, 0.00, 0.00, 0.00, 0.00
156, 1024.74, 209.19, 0.00, 0.00, 0.00, 0.00, 0.00, 0.00, 0.00
157, 1015.17, 222.87, 0.00, 0.00, 0.00, 0.00, 0.00, 0.00, 0.00
158, 1016.04, 205.81, 0.00, 0.00, 0.00, 0.00, 0.00, 0.00, 0.00
159, 1004.67, 215.07, 0.00, 0.00, 0.00, 0.00, 0.00, 0.00, 0.00
160, 1002.92, 211.87, 0.00, 0.00, 0.00, 0.00, 0.00, 0.00, 0.00
161, 999.30, 198.33, 0.00, 0.00, 0.00, 0.00, 0.00, 0.00, 0.00
162, 992.60, 219.16, 0.00, 0.00, 0.00, 0.00, 0.00, 0.00, 0.00
163, 990.88, 197.12, 0.00, 0.00, 0.00, 0.00, 0.00, 0.00, 0.00
164, 992.71, 210.11, 0.00, 0.00, 0.00, 0.00, 0.00, 0.00, 0.00
165, 999.97, 211.56, 0.00, 0.00, 0.00, 0.00, 0.00, 0.00, 0.00
166, 995.97, 197.14, 0.00, 0.00, 0.00, 0.00, 0.00, 0.00, 0.00
167, 987.84, 211.56, 0.00, 0.00, 0.00, 0.00, 0.00, 0.00, 0.00
168, 997.22, 198.89, 0.00, 0.00, 0.00, 0.00, 0.00, 0.00, 0.00
169, 984.88, 198.30, 0.00, 0.00, 0.00, 0.00, 0.00, 0.00, 0.00
170, 972.68, 199.53, 0.00, 0.00, 0.00, 0.00, 0.00, 0.00, 0.00
171, 980.50, 189.45, 0.00, 0.00, 0.00, 0.00, 0.00, 0.00, 0.00
172, 978.22, 203.71, 0.00, 0.00, 0.00, 0.00, 0.00, 0.00, 0.00
173, 982.56, 195.11, 0.00, 0.00, 0.00, 0.00, 0.00, 0.00, 0.00
174, 974.40, 191.11, 0.00, 0.00, 0.00, 0.00, 0.00, 0.00, 0.00
175, 969.82, 200.96, 0.00, 0.00, 0.00, 0.00, 0.00, 0.00, 0.00
176, 973.78, 186.12, 0.00, 0.00, 0.00, 0.00, 0.00, 0.00, 0.00
177, 964.34, 197.95, 0.00, 0.00, 0.00, 0.00, 0.00, 0.00, 0.00
178, 962.06, 193.14, 0.00, 0.00, 0.00, 0.00, 0.00, 0.00, 0.00
179, 958.71, 184.74, 0.00, 0.00, 0.00, 0.00, 0.00, 0.00, 0.00
180, 951.78, 192.87, 0.00, 0.00, 0.00, 0.00, 0.00, 0.00, 0.00
181, 952.14, 179.51, 0.00, 0.00, 0.00, 0.00, 0.00, 0.00, 0.00
182, 942.42, 185.97, 0.00, 0.00, 0.00, 0.00, 0.00, 0.00, 0.00
183, 943.80, 185.88, 0.00, 0.00, 0.00, 0.00, 0.00, 0.00, 0.00
184, 942.44, 178.17, 0.00, 0.00, 0.00, 0.00, 0.00, 0.00, 0.00
185, 935.31, 189.74, 0.00, 0.00, 0.00, 0.00, 0.00, 0.00, 0.00
186, 940.11, 183.60, 0.00, 0.00, 0.00, 0.00, 0.00, 0.00, 0.00
187, 936.25, 183.93, 0.00, 0.00, 0.00, 0.00, 0.00, 0.00, 0.00
188, 934.62, 184.76, 0.00, 0.00, 0.00, 0.00, 0.00, 0.00, 0.00
189, 932.05, 176.02, 0.00, 0.00, 0.00, 0.00, 0.00, 0.00, 0.00
190, 927.28, 183.06, 0.00, 0.00, 0.00, 0.00, 0.00, 0.00, 0.00
191, 929.16, 181.27, 0.00, 0.00, 0.00, 0.00, 0.00, 0.00, 0.00
192, 921.85, 176.00, 0.00, 0.00, 0.00, 0.00, 0.00, 0.00, 0.00
193, 924.31, 187.80, 0.00, 0.00, 0.00, 0.00, 0.00, 0.00, 0.00
194, 923.26, 181.32, 0.00, 0.00, 0.00, 0.00, 0.00, 0.00, 0.00
195, 917.94, 180.11, 0.00, 0.00, 0.00, 0.00, 0.00, 0.00, 0.00
196, 917.67, 183.62, 0.00, 0.00, 0.00, 0.00, 0.00, 0.00, 0.00
197, 913.61, 175.64, 0.00, 0.00, 0.00, 0.00, 0.00, 0.00, 0.00
198, 908.58, 183.15, 0.00, 0.00, 0.00, 0.00, 0.00, 0.00, 0.00
199, 907.95, 178.68, 0.00, 0.00, 0.00, 0.00, 0.00, 0.00, 0.00
200, 904.89, 177.63, 0.00, 0.00, 0.00, 0.00, 0.00, 0.00, 0.00
201, 902.09, 182.79, 0.00, 0.00, 0.00, 0.00, 0.00, 0.00, 0.00
202, 894.85, 170.45, 0.00, 0.00, 0.00, 0.00, 0.00, 0.00, 0.00
203, 890.96, 175.98, 0.00, 0.00, 0.00, 0.00, 0.00, 0.00, 0.00
204, 893.51, 176.98, 0.00, 0.00, 0.00, 0.00, 0.00, 0.00, 0.00
205, 887.90, 166.70, 0.00, 0.00, 0.00, 0.00, 0.00, 0.00, 0.00
206, 883.32, 178.19, 0.00, 0.00, 0.00, 0.00, 0.00, 0.00, 0.00
207, 885.98, 173.14, 0.00, 0.00, 0.00, 0.00, 0.00, 0.00, 0.00
208, 880.75, 174.86, 0.00, 0.00, 0.00, 0.00, 0.00, 0.00, 0.00
209, 876.77, 177.88, 0.00, 0.00, 0.00, 0.00, 0.00, 0.00, 0.00
210, 880.39, 166.05, 0.00, 0.00, 0.00, 0.00, 0.00, 0.00, 0.00
211, 875.29, 181.29, 0.00, 0.00, 0.00, 0.00, 0.00, 0.00, 0.00
212, 872.86, 170.32, 0.00, 0.00, 0.00, 0.00, 0.00, 0.00, 0.00
213, 871.49, 169.29, 0.00, 0.00, 0.00, 0.00, 0.00, 0.00, 0.00
214, 865.84, 181.76, 0.00, 0.00, 0.00, 0.00, 0.00, 0.00, 0.00
215, 864.43, 160.75, 0.00, 0.00, 0.00, 0.00, 0.00, 0.00, 0.00
216, 862.96, 176.87, 0.00, 0.00, 0.00, 0.00, 0.00, 0.00, 0.00
217, 863.18, 172.26, 0.00, 0.00, 0.00, 0.00, 0.00, 0.00, 0.00
218, 858.44, 162.92, 0.00, 0.00, 0.00, 0.00, 0.00, 0.00, 0.00
219, 851.85, 176.31, 0.00, 0.00, 0.00, 0.00, 0.00, 0.00, 0.00
220, 852.38, 159.75, 0.00, 0.00, 0.00, 0.00, 0.00, 0.00, 0.00
221, 846.10, 174.01, 0.00, 0.00, 0.00, 0.00, 0.00, 0.00, 0.00
222, 843.13, 176.87, 0.00, 0.00, 0.00, 0.00, 0.00, 0.00, 0.00
223, 841.19, 163.64, 0.00, 0.00, 0.00, 0.00, 0.00, 0.00, 0.00
224, 845.81, 187.75, 0.00, 0.00, 0.00, 0.00, 0.00, 0.00, 0.00
225, 850.64, 174.23, 0.00, 0.00, 0.00, 0.00, 0.00, 0.00, 0.00
226, 844.09, 181.21, 0.00, 0.00, 0.00, 0.00, 0.00, 0.00, 0.00
227, 848.20, 189.90, 0.00, 0.00, 0.00, 0.00, 0.00, 0.00, 0.00
228, 852.47, 178.72, 0.00, 0.00, 0.00, 0.00, 0.00, 0.00, 0.00
229, 842.79, 201.19, 0.00, 0.00, 0.00, 0.00, 0.00, 0.00, 0.00
230, 844.05, 190.79, 0.00, 0.00, 0.00, 0.00, 0.00, 0.00, 0.00
231, 836.83, 186.32, 0.00, 0.00, 0.00, 0.00, 0.00, 0.00, 0.00
232, 833.63, 194.77, 0.00, 0.00, 0.00, 0.00, 0.00, 0.00, 0.00
233, 835.66, 175.82, 0.00, 0.00, 0.00, 0.00, 0.00, 0.00, 0.00
234, 822.43, 189.45, 0.00, 0.00, 0.00, 0.00, 0.00, 0.00, 0.00
235, 826.25, 183.22, 0.00, 0.00, 0.00, 0.00, 0.00, 0.00, 0.00
236, 821.25, 173.94, 0.00, 0.00, 0.00, 0.00, 0.00, 0.00, 0.00
237, 816.22, 190.93, 0.00, 0.00, 0.00, 0.00, 0.00, 0.00, 0.00
238, 819.75, 174.16, 0.00, 0.00, 0.00, 0.00, 0.00, 0.00, 0.00
239, 808.48, 185.12, 0.00, 0.00, 0.00, 0.00, 0.00, 0.00, 0.00
240, 813.42, 185.97, 0.00, 0.00, 0.00, 0.00, 0.00, 0.00, 0.00
241, 813.58, 175.53, 0.00, 0.00, 0.00, 0.00, 0.00, 0.00, 0.00
242, 805.53, 192.34, 0.00, 0.00, 0.00, 0.00, 0.00, 0.00, 0.00
243, 812.44, 174.54, 0.00, 0.00, 0.00, 0.00, 0.00, 0.00, 0.00
244, 804.93, 183.11, 0.00, 0.00, 0.00, 0.00, 0.00, 0.00, 0.00
245, 804.31, 186.95, 0.00, 0.00, 0.00, 0.00, 0.00, 0.00, 0.00
246, 805.15, 175.30, 0.00, 0.00, 0.00, 0.00, 0.00, 0.00, 0.00
247, 796.66, 195.76, 0.00, 0.00, 0.00, 0.00, 0.00, 0.00, 0.00
248, 802.92, 179.84, 0.00, 0.00, 0.00, 0.00, 0.00, 0.00, 0.00
249, 795.45, 180.36, 0.00, 0.00, 0.00, 0.00, 0.00, 0.00, 0.00
250, 792.53, 188.85, 0.00, 0.00, 0.00, 0.00, 0.00, 0.00, 0.00
251, 793.76, 166.95, 0.00, 0.00, 0.00, 0.00, 0.00, 0.00, 0.00
252, 783.05, 183.73, 0.00, 0.00, 0.00, 0.00, 0.00, 0.00, 0.00
253, 785.69, 178.39, 0.00, 0.00, 0.00, 0.00, 0.00, 0.00, 0.00
254, 776.83, 170.95, 0.00, 0.00, 0.00, 0.00, 0.00, 0.00, 0.00
255, 775.90, 186.64, 0.00, 0.00, 0.00, 0.00, 0.00, 0.00, 0.00
256, 778.47, 167.10, 0.00, 0.00, 0.00, 0.00, 0.00, 0.00, 0.00
257, 770.13, 178.48, 0.00, 0.00, 0.00, 0.00, 0.00, 0.00, 0.00
258, 774.33, 180.74, 0.00, 0.00, 0.00, 0.00, 0.00, 0.00, 0.00
259, 772.03, 168.89, 0.00, 0.00, 0.00, 0.00, 0.00, 0.00, 0.00
260, 768.12, 188.43, 0.00, 0.00, 0.00, 0.00, 0.00, 0.00, 0.00
261, 771.65, 172.06, 0.00, 0.00, 0.00, 0.00, 0.00, 0.00, 0.00
262, 766.75, 181.03, 0.00, 0.00, 0.00, 0.00, 0.00, 0.00, 0.00
263, 770.20, 188.92, 0.00, 0.00, 0.00, 0.00, 0.00, 0.00, 0.00
264, 770.98, 171.93, 0.00, 0.00, 0.00, 0.00, 0.00, 0.00, 0.00
265, 763.27, 190.21, 0.00, 0.00, 0.00, 0.00, 0.00, 0.00, 0.00
266, 763.89, 178.50, 0.00, 0.00, 0.00, 0.00, 0.00, 0.00, 0.00
267, 759.00, 177.41, 0.00, 0.00, 0.00, 0.00, 0.00, 0.00, 0.00
268, 758.04, 186.77, 0.00, 0.00, 0.00, 0.00, 0.00, 0.00, 0.00
269, 759.33, 170.30, 0.00, 0.00, 0.00, 0.00, 0.00, 0.00, 0.00
270, 752.69, 186.17, 0.00, 0.00, 0.00, 0.00, 0.00, 0.00, 0.00
271, 753.90, 181.92, 0.00, 0.00, 0.00, 0.00, 0.00, 0.00, 0.00
272, 743.87, 171.39, 0.00, 0.00, 0.00, 0.00, 0.00, 0.00, 0.00
273, 738.32, 183.53, 0.00, 0.00, 0.00, 0.00, 0.00, 0.00, 0.00
274, 738.35, 166.48, 0.00, 0.00, 0.00, 0.00, 0.00, 0.00, 0.00
275, 731.13, 172.94, 0.00, 0.00, 0.00, 0.00, 0.00, 0.00, 0.00
276, 733.41, 173.54, 0.00, 0.00, 0.00, 0.00, 0.00, 0.00, 0.00
277, 730.79, 160.93, 0.00, 0.00, 0.00, 0.00, 0.00, 0.00, 0.00
278, 727.12, 176.74, 0.00, 0.00, 0.00, 0.00, 0.00, 0.00, 0.00
279, 726.23, 164.15, 0.00, 0.00, 0.00, 0.00, 0.00, 0.00, 0.00
280, 721.56, 167.64, 0.00, 0.00, 0.00, 0.00, 0.00, 0.00, 0.00
281, 720.91, 172.49, 0.00, 0.00, 0.00, 0.00, 0.00, 0.00, 0.00
282, 720.22, 158.74, 0.00, 0.00, 0.00, 0.00, 0.00, 0.00, 0.00
283, 711.39, 172.73, 0.00, 0.00, 0.00, 0.00, 0.00, 0.00, 0.00
284, 713.24, 164.04, 0.00, 0.00, 0.00, 0.00, 0.00, 0.00, 0.00
285, 709.82, 161.65, 0.00, 0.00, 0.00, 0.00, 0.00, 0.00, 0.00
286, 706.63, 174.84, 0.00, 0.00, 0.00, 0.00, 0.00, 0.00, 0.00
287, 709.51, 155.28, 0.00, 0.00, 0.00, 0.00, 0.00, 0.00, 0.00
288, 705.49, 165.27, 0.00, 0.00, 0.00, 0.00, 0.00, 0.00, 0.00
289, 708.37, 167.33, 0.00, 0.00, 0.00, 0.00, 0.00, 0.00, 0.00
290, 705.91, 161.27, 0.00, 0.00, 0.00, 0.00, 0.00, 0.00, 0.00
291, 703.19, 177.58, 0.00, 0.00, 0.00, 0.00, 0.00, 0.00, 0.00
292, 706.18, 157.49, 0.00, 0.00, 0.00, 0.00, 0.00, 0.00, 0.00
293, 701.55, 166.14, 0.00, 0.00, 0.00, 0.00, 0.00, 0.00, 0.00
294, 697.73, 168.60, 0.00, 0.00, 0.00, 0.00, 0.00, 0.00, 0.00
295, 699.21, 155.61, 0.00, 0.00, 0.00, 0.00, 0.00, 0.00, 0.00
296, 694.36, 173.47, 0.00, 0.00, 0.00, 0.00, 0.00, 0.00, 0.00
297, 695.14, 159.48, 0.00, 0.00, 0.00, 0.00, 0.00, 0.00, 0.00
298, 691.52, 163.91, 0.00, 0.00, 0.00, 0.00, 0.00, 0.00, 0.00
299, 689.69, 169.02, 0.00, 0.00, 0.00, 0.00, 0.00, 0.00, 0.00
300, 690.13, 147.88, 0.00, 0.00, 0.00, 0.00, 0.00, 0.00, 0.00
301, 683.23, 165.34, 0.00, 0.00, 0.00, 0.00, 0.00, 0.00, 0.00
302, 685.55, 161.40, 0.00, 0.00, 0.00, 0.00, 0.00, 0.00, 0.00
303, 682.20, 158.00, 0.00, 0.00, 0.00, 0.00, 0.00, 0.00, 0.00
304, 676.74, 168.17, 0.00, 0.00, 0.00, 0.00, 0.00, 0.00, 0.00
305, 680.54, 152.13, 0.00, 0.00, 0.00, 0.00, 0.00, 0.00, 0.00
306, 671.67, 163.46, 0.00, 0.00, 0.00, 0.00, 0.00, 0.00, 0.00
307, 672.03, 161.65, 0.00, 0.00, 0.00, 0.00, 0.00, 0.00, 0.00
308, 667.83, 155.52, 0.00, 0.00, 0.00, 0.00, 0.00, 0.00, 0.00
309, 662.10, 166.45, 0.00, 0.00, 0.00, 0.00, 0.00, 0.00, 0.00
310, 664.29, 149.38, 0.00, 0.00, 0.00, 0.00, 0.00, 0.00, 0.00
311, 658.19, 160.37, 0.00, 0.00, 0.00, 0.00, 0.00, 0.00, 0.00
312, 657.05, 165.36, 0.00, 0.00, 0.00, 0.00, 0.00, 0.00, 0.00
313, 658.57, 154.54, 0.00, 0.00, 0.00, 0.00, 0.00, 0.00, 0.00
314, 654.03, 164.51, 0.00, 0.00, 0.00, 0.00, 0.00, 0.00, 0.00
315, 656.60, 152.84, 0.00, 0.00, 0.00, 0.00, 0.00, 0.00, 0.00
316, 650.64, 150.94, 0.00, 0.00, 0.00, 0.00, 0.00, 0.00, 0.00
317, 648.42, 160.51, 0.00, 0.00, 0.00, 0.00, 0.00, 0.00, 0.00
318, 648.87, 152.35, 0.00, 0.00, 0.00, 0.00, 0.00, 0.00, 0.00
319, 643.86, 161.98, 0.00, 0.00, 0.00, 0.00, 0.00, 0.00, 0.00
320, 645.61, 158.07, 0.00, 0.00, 0.00, 0.00, 0.00, 0.00, 0.00
321, 639.73, 151.01, 0.00, 0.00, 0.00, 0.00, 0.00, 0.00, 0.00
322, 637.05, 157.24, 0.00, 0.00, 0.00, 0.00, 0.00, 0.00, 0.00
323, 637.36, 148.59, 0.00, 0.00, 0.00, 0.00, 0.00, 0.00, 0.00
324, 631.88, 154.96, 0.00, 0.00, 0.00, 0.00, 0.00, 0.00, 0.00
325, 630.03, 156.46, 0.00, 0.00, 0.00, 0.00, 0.00, 0.00, 0.00
326, 627.95, 145.38, 0.00, 0.00, 0.00, 0.00, 0.00, 0.00, 0.00
327, 623.97, 153.58, 0.00, 0.00, 0.00, 0.00, 0.00, 0.00, 0.00
328, 623.66, 146.90, 0.00, 0.00, 0.00, 0.00, 0.00, 0.00, 0.00
329, 620.28, 141.87, 0.00, 0.00, 0.00, 0.00, 0.00, 0.00, 0.00
330, 621.27, 149.78, 0.00, 0.00, 0.00, 0.00, 0.00, 0.00, 0.00
331, 619.30, 145.13, 0.00, 0.00, 0.00, 0.00, 0.00, 0.00, 0.00
332, 614.40, 152.35, 0.00, 0.00, 0.00, 0.00, 0.00, 0.00, 0.00
333, 615.48, 149.53, 0.00, 0.00, 0.00, 0.00, 0.00, 0.00, 0.00
334, 611.10, 138.87, 0.00, 0.00, 0.00, 0.00, 0.00, 0.00, 0.00
335, 606.69, 149.06, 0.00, 0.00, 0.00, 0.00, 0.00, 0.00, 0.00
336, 608.62, 142.20, 0.00, 0.00, 0.00, 0.00, 0.00, 0.00, 0.00
337, 603.74, 141.31, 0.00, 0.00, 0.00, 0.00, 0.00, 0.00, 0.00
338, 604.39, 147.97, 0.00, 0.00, 0.00, 0.00, 0.00, 0.00, 0.00
339, 603.09, 139.70, 0.00, 0.00, 0.00, 0.00, 0.00, 0.00, 0.00
340, 599.45, 149.87, 0.00, 0.00, 0.00, 0.00, 0.00, 0.00, 0.00
341, 600.08, 137.87, 0.00, 0.00, 0.00, 0.00, 0.00, 0.00, 0.00
342, 598.38, 139.09, 0.00, 0.00, 0.00, 0.00, 0.00, 0.00, 0.00
343, 595.74, 148.24, 0.00, 0.00, 0.00, 0.00, 0.00, 0.00, 0.00
344, 594.89, 134.40, 0.00, 0.00, 0.00, 0.00, 0.00, 0.00, 0.00
345, 589.39, 145.69, 0.00, 0.00, 0.00, 0.00, 0.00, 0.00, 0.00
346, 590.11, 140.61, 0.00, 0.00, 0.00, 0.00, 0.00, 0.00, 0.00
347, 587.29, 135.36, 0.00, 0.00, 0.00, 0.00, 0.00, 0.00, 0.00
348, 579.87, 142.54, 0.00, 0.00, 0.00, 0.00, 0.00, 0.00, 0.00
349, 579.78, 130.38, 0.00, 0.00, 0.00, 0.00, 0.00, 0.00, 0.00
350, 576.83, 143.01, 0.00, 0.00, 0.00, 0.00, 0.00, 0.00, 0.00
351, 577.70, 138.18, 0.00, 0.00, 0.00, 0.00, 0.00, 0.00, 0.00
352, 575.16, 125.97, 0.00, 0.00, 0.00, 0.00, 0.00, 0.00, 0.00
353, 570.53, 140.99, 0.00, 0.00, 0.00, 0.00, 0.00, 0.00, 0.00
354, 572.54, 131.63, 0.00, 0.00, 0.00, 0.00, 0.00, 0.00, 0.00
355, 570.64, 138.96, 0.00, 0.00, 0.00, 0.00, 0.00, 0.00, 0.00
356, 566.57, 138.40, 0.00, 0.00, 0.00, 0.00, 0.00, 0.00, 0.00
357, 566.12, 129.66, 0.00, 0.00, 0.00, 0.00, 0.00, 0.00, 0.00
358, 564.38, 141.82, 0.00, 0.00, 0.00, 0.00, 0.00, 0.00, 0.00
359, 565.86, 130.67, 0.00, 0.00, 0.00, 0.00, 0.00, 0.00, 0.00
360, 559.67, 134.78, 0.00, 0.00, 0.00, 0.00, 0.00, 0.00, 0.00
361, 557.74, 140.39, 0.00, 0.00, 0.00, 0.00, 0.00, 0.00, 0.00
362, 560.49, 130.80, 0.00, 0.00, 0.00, 0.00, 0.00, 0.00, 0.00
363, 553.21, 141.06, 0.00, 0.00, 0.00, 0.00, 0.00, 0.00, 0.00
364, 551.44, 131.76, 0.00, 0.00, 0.00, 0.00, 0.00, 0.00, 0.00
365, 550.39, 131.79, 0.00, 0.00, 0.00, 0.00, 0.00, 0.00, 0.00
366, 543.53, 135.59, 0.00, 0.00, 0.00, 0.00, 0.00, 0.00, 0.00
367, 546.16, 128.30, 0.00, 0.00, 0.00, 0.00, 0.00, 0.00, 0.00
368, 543.75, 139.32, 0.00, 0.00, 0.00, 0.00, 0.00, 0.00, 0.00
369, 540.58, 130.94, 0.00, 0.00, 0.00, 0.00, 0.00, 0.00, 0.00
370, 541.49, 129.08, 0.00, 0.00, 0.00, 0.00, 0.00, 0.00, 0.00
371, 539.64, 136.90, 0.00, 0.00, 0.00, 0.00, 0.00, 0.00, 0.00
372, 540.13, 124.61, 0.00, 0.00, 0.00, 0.00, 0.00, 0.00, 0.00
373, 535.28, 131.18, 0.00, 0.00, 0.00, 0.00, 0.00, 0.00, 0.00
374, 533.58, 130.36, 0.00, 0.00, 0.00, 0.00, 0.00, 0.00, 0.00
375, 531.64, 124.88, 0.00, 0.00, 0.00, 0.00, 0.00, 0.00, 0.00
376, 526.38, 131.65, 0.00, 0.00, 0.00, 0.00, 0.00, 0.00, 0.00
377, 528.02, 124.81, 0.00, 0.00, 0.00, 0.00, 0.00, 0.00, 0.00
378, 524.06, 129.77, 0.00, 0.00, 0.00, 0.00, 0.00, 0.00, 0.00
379, 522.96, 132.39, 0.00, 0.00, 0.00, 0.00, 0.00, 0.00, 0.00
380, 526.16, 130.36, 0.00, 0.00, 0.00, 0.00, 0.00, 0.00, 0.00
381, 519.75, 133.91, 0.00, 0.00, 0.00, 0.00, 0.00, 0.00, 0.00
382, 521.26, 129.62, 0.00, 0.00, 0.00, 0.00, 0.00, 0.00, 0.00
383, 518.74, 131.90, 0.00, 0.00, 0.00, 0.00, 0.00, 0.00, 0.00
384, 517.17, 130.87, 0.00, 0.00, 0.00, 0.00, 0.00, 0.00, 0.00
385, 517.31, 125.26, 0.00, 0.00, 0.00, 0.00, 0.00, 0.00, 0.00
386, 511.94, 130.36, 0.00, 0.00, 0.00, 0.00, 0.00, 0.00, 0.00
387, 512.17, 130.18, 0.00, 0.00, 0.00, 0.00, 0.00, 0.00, 0.00
388, 509.66, 129.48, 0.00, 0.00, 0.00, 0.00, 0.00, 0.00, 0.00
389, 509.13, 129.04, 0.00, 0.00, 0.00, 0.00, 0.00, 0.00, 0.00
390, 509.66, 131.05, 0.00, 0.00, 0.00, 0.00, 0.00, 0.00, 0.00
391, 505.15, 129.95, 0.00, 0.00, 0.00, 0.00, 0.00, 0.00, 0.00
392, 504.93, 128.95, 0.00, 0.00, 0.00, 0.00, 0.00, 0.00, 0.00
393, 503.14, 128.79, 0.00, 0.00, 0.00, 0.00, 0.00, 0.00, 0.00
394, 499.23, 128.97, 0.00, 0.00, 0.00, 0.00, 0.00, 0.00, 0.00
395, 499.47, 128.75, 0.00, 0.00, 0.00, 0.00, 0.00, 0.00, 0.00
396, 497.53, 124.30, 0.00, 0.00, 0.00, 0.00, 0.00, 0.00, 0.00
397, 496.32, 128.12, 0.00, 0.00, 0.00, 0.00, 0.00, 0.00, 0.00
398, 493.41, 125.75, 0.00, 0.00, 0.00, 0.00, 0.00, 0.00, 0.00
399, 491.18, 122.09, 0.00, 0.00, 0.00, 0.00, 0.00, 0.00, 0.00
400, 490.33, 128.52, 0.00, 0.00, 0.00, 0.00, 0.00, 0.00, 0.00
401, 486.15, 121.53, 0.00, 0.00, 0.00, 0.00, 0.00, 0.00, 0.00
402, 484.92, 121.06, 0.00, 0.00, 0.00, 0.00, 0.00, 0.00, 0.00
403, 485.35, 122.02, 0.00, 0.00, 0.00, 0.00, 0.00, 0.00, 0.00
404, 483.16, 117.84, 0.00, 0.00, 0.00, 0.00, 0.00, 0.00, 0.00
405, 480.67, 125.71, 0.00, 0.00, 0.00, 0.00, 0.00, 0.00, 0.00
406, 483.98, 123.99, 0.00, 0.00, 0.00, 0.00, 0.00, 0.00, 0.00
407, 486.37, 130.80, 0.00, 0.00, 0.00, 0.00, 0.00, 0.00, 0.00
408, 487.00, 137.06, 0.00, 0.00, 0.00, 0.00, 0.00, 0.00, 0.00
409, 483.89, 127.23, 0.00, 0.00, 0.00, 0.00, 0.00, 0.00, 0.00
410, 480.09, 132.90, 0.00, 0.00, 0.00, 0.00, 0.00, 0.00, 0.00
411, 476.45, 124.12, 0.00, 0.00, 0.00, 0.00, 0.00, 0.00, 0.00
412, 472.43, 119.09, 0.00, 0.00, 0.00, 0.00, 0.00, 0.00, 0.00
413, 472.16, 124.83, 0.00, 0.00, 0.00, 0.00, 0.00, 0.00, 0.00
414, 472.63, 112.88, 0.00, 0.00, 0.00, 0.00, 0.00, 0.00, 0.00
415, 473.39, 123.99, 0.00, 0.00, 0.00, 0.00, 0.00, 0.00, 0.00
416, 472.29, 120.57, 0.00, 0.00, 0.00, 0.00, 0.00, 0.00, 0.00
417, 468.29, 114.02, 0.00, 0.00, 0.00, 0.00, 0.00, 0.00, 0.00
418, 462.75, 124.30, 0.00, 0.00, 0.00, 0.00, 0.00, 0.00, 0.00
419, 463.58, 110.93, 0.00, 0.00, 0.00, 0.00, 0.00, 0.00, 0.00
420, 459.17, 122.31, 0.00, 0.00, 0.00, 0.00, 0.00, 0.00, 0.00
421, 457.63, 120.68, 0.00, 0.00, 0.00, 0.00, 0.00, 0.00, 0.00
422, 456.31, 113.86, 0.00, 0.00, 0.00, 0.00, 0.00, 0.00, 0.00
423, 449.92, 127.72, 0.00, 0.00, 0.00, 0.00, 0.00, 0.00, 0.00
424, 451.59, 112.25, 0.00, 0.00, 0.00, 0.00, 0.00, 0.00, 0.00
425, 445.63, 117.39, 0.00, 0.00, 0.00, 0.00, 0.00, 0.00, 0.00
426, 445.11, 118.49, 0.00, 0.00, 0.00, 0.00, 0.00, 0.00, 0.00
427, 444.04, 105.28, 0.00, 0.00, 0.00, 0.00, 0.00, 0.00, 0.00
428, 440.13, 124.19, 0.00, 0.00, 0.00, 0.00, 0.00, 0.00, 0.00
429, 446.27, 111.45, 0.00, 0.00, 0.00, 0.00, 0.00, 0.00, 0.00
430, 443.19, 118.58, 0.00, 0.00, 0.00, 0.00, 0.00, 0.00, 0.00
431, 443.41, 125.35, 0.00, 0.00, 0.00, 0.00, 0.00, 0.00, 0.00
432, 445.65, 110.22, 0.00, 0.00, 0.00, 0.00, 0.00, 0.00, 0.00
433, 438.16, 126.40, 0.00, 0.00, 0.00, 0.00, 0.00, 0.00, 0.00
434, 439.90, 111.02, 0.00, 0.00, 0.00, 0.00, 0.00, 0.00, 0.00
435, 435.64, 112.18, 0.00, 0.00, 0.00, 0.00, 0.00, 0.00, 0.00
436, 433.31, 122.71, 0.00, 0.00, 0.00, 0.00, 0.00, 0.00, 0.00
437, 435.46, 106.01, 0.00, 0.00, 0.00, 0.00, 0.00, 0.00, 0.00
438, 429.47, 121.77, 0.00, 0.00, 0.00, 0.00, 0.00, 0.00, 0.00
439, 430.67, 113.90, 0.00, 0.00, 0.00, 0.00, 0.00, 0.00, 0.00
440, 426.38, 111.74, 0.00, 0.00, 0.00, 0.00, 0.00, 0.00, 0.00
441, 423.70, 120.65, 0.00, 0.00, 0.00, 0.00, 0.00, 0.00, 0.00
442, 426.78, 109.41, 0.00, 0.00, 0.00, 0.00, 0.00, 0.00, 0.00
443, 418.96, 120.03, 0.00, 0.00, 0.00, 0.00, 0.00, 0.00, 0.00
444, 420.39, 115.09, 0.00, 0.00, 0.00, 0.00, 0.00, 0.00, 0.00
445, 418.20, 109.72, 0.00, 0.00, 0.00, 0.00, 0.00, 0.00, 0.00
446, 416.01, 120.16, 0.00, 0.00, 0.00, 0.00, 0.00, 0.00, 0.00
447, 417.60, 109.28, 0.00, 0.00, 0.00, 0.00, 0.00, 0.00, 0.00
448, 412.88, 116.32, 0.00, 0.00, 0.00, 0.00, 0.00, 0.00, 0.00
449, 414.71, 118.33, 0.00, 0.00, 0.00, 0.00, 0.00, 0.00, 0.00
450, 411.65, 113.32, 0.00, 0.00, 0.00, 0.00, 0.00, 0.00, 0.00
451, 406.96, 117.39, 0.00, 0.00, 0.00, 0.00, 0.00, 0.00, 0.00
452, 411.25, 112.21, 0.00, 0.00, 0.00, 0.00, 0.00, 0.00, 0.00
453, 405.95, 114.44, 0.00, 0.00, 0.00, 0.00, 0.00, 0.00, 0.00
454, 406.62, 113.73, 0.00, 0.00, 0.00, 0.00, 0.00, 0.00, 0.00
455, 407.03, 108.34, 0.00, 0.00, 0.00, 0.00, 0.00, 0.00, 0.00
456, 404.05, 114.78, 0.00, 0.00, 0.00, 0.00, 0.00, 0.00, 0.00
457, 403.00, 109.70, 0.00, 0.00, 0.00, 0.00, 0.00, 0.00, 0.00
458, 398.60, 110.22, 0.00, 0.00, 0.00, 0.00, 0.00, 0.00, 0.00
459, 396.27, 112.74, 0.00, 0.00, 0.00, 0.00, 0.00, 0.00, 0.00
460, 393.39, 105.97, 0.00, 0.00, 0.00, 0.00, 0.00, 0.00, 0.00
461, 387.89, 106.22, 0.00, 0.00, 0.00, 0.00, 0.00, 0.00, 0.00
462, 389.35, 106.13, 0.00, 0.00, 0.00, 0.00, 0.00, 0.00, 0.00
463, 386.60, 105.79, 0.00, 0.00, 0.00, 0.00, 0.00, 0.00, 0.00
464, 384.52, 105.61, 0.00, 0.00, 0.00, 0.00, 0.00, 0.00, 0.00
465, 386.31, 105.99, 0.00, 0.00, 0.00, 0.00, 0.00, 0.00, 0.00
466, 380.54, 104.05, 0.00, 0.00, 0.00, 0.00, 0.00, 0.00, 0.00
467, 380.09, 105.12, 0.00, 0.00, 0.00, 0.00, 0.00, 0.00, 0.00
468, 379.47, 102.33, 0.00, 0.00, 0.00, 0.00, 0.00, 0.00, 0.00
469, 377.52, 102.95, 0.00, 0.00, 0.00, 0.00, 0.00, 0.00, 0.00
470, 376.22, 105.16, 0.00, 0.00, 0.00, 0.00, 0.00, 0.00, 0.00
471, 374.24, 98.91, 0.00, 0.00, 0.00, 0.00, 0.00, 0.00, 0.00
472, 372.34, 106.71, 0.00, 0.00, 0.00, 0.00, 0.00, 0.00, 0.00
473, 369.76, 101.41, 0.00, 0.00, 0.00, 0.00, 0.00, 0.00, 0.00
474, 370.23, 101.23, 0.00, 0.00, 0.00, 0.00, 0.00, 0.00, 0.00
475, 368.36, 110.10, 0.00, 0.00, 0.00, 0.00, 0.00, 0.00, 0.00
476, 368.69, 99.53, 0.00, 0.00, 0.00, 0.00, 0.00, 0.00, 0.00
477, 368.51, 107.56, 0.00, 0.00, 0.00, 0.00, 0.00, 0.00, 0.00
478, 364.56, 102.84, 0.00, 0.00, 0.00, 0.00, 0.00, 0.00, 0.00
479, 364.71, 97.25, 0.00, 0.00, 0.00, 0.00, 0.00, 0.00, 0.00
480, 361.18, 110.57, 0.00, 0.00, 0.00, 0.00, 0.00, 0.00, 0.00
481, 361.58, 98.26, 0.00, 0.00, 0.00, 0.00, 0.00, 0.00, 0.00
482, 359.06, 105.43, 0.00, 0.00, 0.00, 0.00, 0.00, 0.00, 0.00
483, 358.63, 108.74, 0.00, 0.00, 0.00, 0.00, 0.00, 0.00, 0.00
484, 359.66, 97.30, 0.00, 0.00, 0.00, 0.00, 0.00, 0.00, 0.00
485, 355.35, 111.27, 0.00, 0.00, 0.00, 0.00, 0.00, 0.00, 0.00
486, 357.92, 98.19, 0.00, 0.00, 0.00, 0.00, 0.00, 0.00, 0.00
487, 355.35, 102.30, 0.00, 0.00, 0.00, 0.00, 0.00, 0.00, 0.00
488, 352.87, 108.88, 0.00, 0.00, 0.00, 0.00, 0.00, 0.00, 0.00
489, 355.55, 94.70, 0.00, 0.00, 0.00, 0.00, 0.00, 0.00, 0.00
490, 350.41, 110.22, 0.00, 0.00, 0.00, 0.00, 0.00, 0.00, 0.00
491, 352.53, 100.20, 0.00, 0.00, 0.00, 0.00, 0.00, 0.00, 0.00
492, 348.31, 99.64, 0.00, 0.00, 0.00, 0.00, 0.00, 0.00, 0.00
493, 343.35, 107.87, 0.00, 0.00, 0.00, 0.00, 0.00, 0.00, 0.00
494, 347.41, 94.01, 0.00, 0.00, 0.00, 0.00, 0.00, 0.00, 0.00
495, 338.43, 104.43, 0.00, 0.00, 0.00, 0.00, 0.00, 0.00, 0.00
496, 340.37, 96.27, 0.00, 0.00, 0.00, 0.00, 0.00, 0.00, 0.00
497, 339.63, 92.20, 0.00, 0.00, 0.00, 0.00, 0.00, 0.00, 0.00
498, 334.81, 105.41, 0.00, 0.00, 0.00, 0.00, 0.00, 0.00, 0.00
499, 336.13, 86.41, 0.00, 0.00, 0.00, 0.00, 0.00, 0.00, 0.00
500, 328.28, 96.65, 0.00, 0.00, 0.00, 0.00, 0.00, 0.00, 0.00
501, 331.41, 96.58, 0.00, 0.00, 0.00, 0.00, 0.00, 0.00, 0.00
502, 327.16, 86.05, 0.00, 0.00, 0.00, 0.00, 0.00, 0.00, 0.00
503, 321.89, 99.17, 0.00, 0.00, 0.00, 0.00, 0.00, 0.00, 0.00
504, 326.80, 85.94, 0.00, 0.00, 0.00, 0.00, 0.00, 0.00, 0.00
505, 319.97, 95.75, 0.00, 0.00, 0.00, 0.00, 0.00, 0.00, 0.00
506, 319.72, 97.12, 0.00, 0.00, 0.00, 0.00, 0.00, 0.00, 0.00
507, 323.14, 86.37, 0.00, 0.00, 0.00, 0.00, 0.00, 0.00, 0.00
508, 318.85, 101.99, 0.00, 0.00, 0.00, 0.00, 0.00, 0.00, 0.00
509, 322.98, 90.12, 0.00, 0.00, 0.00, 0.00, 0.00, 0.00, 0.00
510, 318.69, 93.50, 0.00, 0.00, 0.00, 0.00, 0.00, 0.00, 0.00
511, 317.80, 97.41, 0.00, 0.00, 0.00, 0.00, 0.00, 0.00, 0.00
512, 317.53, 85.18, 0.00, 0.00, 0.00, 0.00, 0.00, 0.00, 0.00
513, 311.25, 97.92, 0.00, 0.00, 0.00, 0.00, 0.00, 0.00, 0.00
514, 314.96, 89.88, 0.00, 0.00, 0.00, 0.00, 0.00, 0.00, 0.00
515, 310.09, 89.18, 0.00, 0.00, 0.00, 0.00, 0.00, 0.00, 0.00
516, 311.65, 98.08, 0.00, 0.00, 0.00, 0.00, 0.00, 0.00, 0.00
517, 315.03, 84.60, 0.00, 0.00, 0.00, 0.00, 0.00, 0.00, 0.00
518, 308.70, 93.47, 0.00, 0.00, 0.00, 0.00, 0.00, 0.00, 0.00
519, 310.82, 89.34, 0.00, 0.00, 0.00, 0.00, 0.00, 0.00, 0.00
520, 309.59, 82.12, 0.00, 0.00, 0.00, 0.00, 0.00, 0.00, 0.00
521, 305.01, 92.02, 0.00, 0.00, 0.00, 0.00, 0.00, 0.00, 0.00
522, 306.64, 84.49, 0.00, 0.00, 0.00, 0.00, 0.00, 0.00, 0.00
523, 300.03, 87.37, 0.00, 0.00, 0.00, 0.00, 0.00, 0.00, 0.00
524, 301.59, 91.60, 0.00, 0.00, 0.00, 0.00, 0.00, 0.00, 0.00
525, 298.28, 84.47, 0.00, 0.00, 0.00, 0.00, 0.00, 0.00, 0.00
526, 291.78, 91.89, 0.00, 0.00, 0.00, 0.00, 0.00, 0.00, 0.00
527, 295.74, 86.34, 0.00, 0.00, 0.00, 0.00, 0.00, 0.00, 0.00
528, 290.01, 83.60, 0.00, 0.00, 0.00, 0.00, 0.00, 0.00, 0.00
529, 290.28, 88.51, 0.00, 0.00, 0.00, 0.00, 0.00, 0.00, 0.00
530, 291.94, 79.84, 0.00, 0.00, 0.00, 0.00, 0.00, 0.00, 0.00
531, 286.53, 86.17, 0.00, 0.00, 0.00, 0.00, 0.00, 0.00, 0.00
532, 289.79, 86.01, 0.00, 0.00, 0.00, 0.00, 0.00, 0.00, 0.00
533, 285.68, 81.03, 0.00, 0.00, 0.00, 0.00, 0.00, 0.00, 0.00
534, 282.26, 85.99, 0.00, 0.00, 0.00, 0.00, 0.00, 0.00, 0.00
535, 283.00, 81.87, 0.00, 0.00, 0.00, 0.00, 0.00, 0.00, 0.00
536, 278.88, 81.61, 0.00, 0.00, 0.00, 0.00, 0.00, 0.00, 0.00
537, 277.72, 82.84, 0.00, 0.00, 0.00, 0.00, 0.00, 0.00, 0.00
538, 277.18, 76.87, 0.00, 0.00, 0.00, 0.00, 0.00, 0.00, 0.00
539, 277.61, 82.97, 0.00, 0.00, 0.00, 0.00, 0.00, 0.00, 0.00
540, 276.40, 78.48, 0.00, 0.00, 0.00, 0.00, 0.00, 0.00, 0.00
541, 273.65, 72.96, 0.00, 0.00, 0.00, 0.00, 0.00, 0.00, 0.00
542, 273.43, 82.66, 0.00, 0.00, 0.00, 0.00, 0.00, 0.00, 0.00
543, 271.80, 75.44, 0.00, 0.00, 0.00, 0.00, 0.00, 0.00, 0.00
544, 269.16, 81.16, 0.00, 0.00, 0.00, 0.00, 0.00, 0.00, 0.00
545, 270.03, 82.54, 0.00, 0.00, 0.00, 0.00, 0.00, 0.00, 0.00
546, 269.65, 75.48, 0.00, 0.00, 0.00, 0.00, 0.00, 0.00, 0.00
547, 263.66, 83.73, 0.00, 0.00, 0.00, 0.00, 0.00, 0.00, 0.00
548, 263.19, 76.00, 0.00, 0.00, 0.00, 0.00, 0.00, 0.00, 0.00
549, 260.00, 76.06, 0.00, 0.00, 0.00, 0.00, 0.00, 0.00, 0.00
550, 257.34, 79.77, 0.00, 0.00, 0.00, 0.00, 0.00, 0.00, 0.00
551, 259.01, 67.08, 0.00, 0.00, 0.00, 0.00, 0.00, 0.00, 0.00
552, 255.15, 76.33, 0.00, 0.00, 0.00, 0.00, 0.00, 0.00, 0.00
553, 257.43, 73.43, 0.00, 0.00, 0.00, 0.00, 0.00, 0.00, 0.00
554, 258.43, 72.40, 0.00, 0.00, 0.00, 0.00, 0.00, 0.00, 0.00
555, 253.80, 82.01, 0.00, 0.00, 0.00, 0.00, 0.00, 0.00, 0.00
556, 257.40, 70.65, 0.00, 0.00, 0.00, 0.00, 0.00, 0.00, 0.00
557, 254.56, 79.82, 0.00, 0.00, 0.00, 0.00, 0.00, 0.00, 0.00
558, 255.12, 77.67, 0.00, 0.00, 0.00, 0.00, 0.00, 0.00, 0.00
559, 254.18, 67.97, 0.00, 0.00, 0.00, 0.00, 0.00, 0.00, 0.00
560, 246.16, 80.09, 0.00, 0.00, 0.00, 0.00, 0.00, 0.00, 0.00
561, 249.58, 68.51, 0.00, 0.00, 0.00, 0.00, 0.00, 0.00, 0.00
562, 241.96, 74.21, 0.00, 0.00, 0.00, 0.00, 0.00, 0.00, 0.00
563, 240.82, 76.89, 0.00, 0.00, 0.00, 0.00, 0.00, 0.00, 0.00
564, 243.68, 64.51, 0.00, 0.00, 0.00, 0.00, 0.00, 0.00, 0.00
565, 238.87, 80.76, 0.00, 0.00, 0.00, 0.00, 0.00, 0.00, 0.00
566, 244.62, 67.90, 0.00, 0.00, 0.00, 0.00, 0.00, 0.00, 0.00
567, 240.21, 71.79, 0.00, 0.00, 0.00, 0.00, 0.00, 0.00, 0.00
568, 235.61, 78.77, 0.00, 0.00, 0.00, 0.00, 0.00, 0.00, 0.00
569, 239.28, 65.11, 0.00, 0.00, 0.00, 0.00, 0.00, 0.00, 0.00
570, 238.52, 82.01, 0.00, 0.00, 0.00, 0.00, 0.00, 0.00, 0.00
571, 244.44, 74.01, 0.00, 0.00, 0.00, 0.00, 0.00, 0.00, 0.00
572, 242.81, 73.36, 0.00, 0.00, 0.00, 0.00, 0.00, 0.00, 0.00
573, 241.24, 85.09, 0.00, 0.00, 0.00, 0.00, 0.00, 0.00, 0.00
574, 245.80, 70.25, 0.00, 0.00, 0.00, 0.00, 0.00, 0.00, 0.00
575, 234.05, 83.68, 0.00, 0.00, 0.00, 0.00, 0.00, 0.00, 0.00
576, 235.23, 79.19, 0.00, 0.00, 0.00, 0.00, 0.00, 0.00, 0.00
577, 233.84, 69.74, 0.00, 0.00, 0.00, 0.00, 0.00, 0.00, 0.00
578, 227.65, 86.32, 0.00, 0.00, 0.00, 0.00, 0.00, 0.00, 0.00
579, 232.46, 67.39, 0.00, 0.00, 0.00, 0.00, 0.00, 0.00, 0.00
580, 223.43, 71.57, 0.00, 0.00, 0.00, 0.00, 0.00, 0.00, 0.00
581, 223.67, 73.16, 0.00, 0.00, 0.00, 0.00, 0.00, 0.00, 0.00
582, 226.98, 64.82, 0.00, 0.00, 0.00, 0.00, 0.00, 0.00, 0.00
583, 222.78, 83.53, 0.00, 0.00, 0.00, 0.00, 0.00, 0.00, 0.00
584, 229.69, 69.13, 0.00, 0.00, 0.00, 0.00, 0.00, 0.00, 0.00
585, 222.56, 71.03, 0.00, 0.00, 0.00, 0.00, 0.00, 0.00, 0.00
586, 223.00, 80.09, 0.00, 0.00, 0.00, 0.00, 0.00, 0.00, 0.00
587, 225.73, 64.17, 0.00, 0.00, 0.00, 0.00, 0.00, 0.00, 0.00
588, 216.07, 80.29, 0.00, 0.00, 0.00, 0.00, 0.00, 0.00, 0.00
589, 219.87, 70.12, 0.00, 0.00, 0.00, 0.00, 0.00, 0.00, 0.00
590, 215.96, 68.02, 0.00, 0.00, 0.00, 0.00, 0.00, 0.00, 0.00
591, 214.78, 79.42, 0.00, 0.00, 0.00, 0.00, 0.00, 0.00, 0.00
592, 218.02, 59.43, 0.00, 0.00, 0.00, 0.00, 0.00, 0.00, 0.00
593, 209.97, 72.29, 0.00, 0.00, 0.00, 0.00, 0.00, 0.00, 0.00
594, 215.87, 72.62, 0.00, 0.00, 0.00, 0.00, 0.00, 0.00, 0.00
595, 211.49, 62.81, 0.00, 0.00, 0.00, 0.00, 0.00, 0.00, 0.00
596, 207.13, 77.43, 0.00, 0.00, 0.00, 0.00, 0.00, 0.00, 0.00
597, 214.51, 65.33, 0.00, 0.00, 0.00, 0.00, 0.00, 0.00, 0.00
598, 205.99, 70.39, 0.00, 0.00, 0.00, 0.00, 0.00, 0.00, 0.00
599, 208.68, 73.25, 0.00, 0.00, 0.00, 0.00, 0.00, 0.00, 0.00
600, 208.34, 62.94, 0.00, 0.00, 0.00, 0.00, 0.00, 0.00, 0.00
601, 201.90, 78.99, 0.00, 0.00, 0.00, 0.00, 0.00, 0.00, 0.00
602, 208.27, 63.32, 0.00, 0.00, 0.00, 0.00, 0.00, 0.00, 0.00
603, 200.18, 62.61, 0.00, 0.00, 0.00, 0.00, 0.00, 0.00, 0.00
604, 199.53, 74.57, 0.00, 0.00, 0.00, 0.00, 0.00, 0.00, 0.00
605, 200.67, 62.47, 0.00, 0.00, 0.00, 0.00, 0.00, 0.00, 0.00
606, 194.15, 76.80, 0.00, 0.00, 0.00, 0.00, 0.00, 0.00, 0.00
607, 197.70, 65.36, 0.00, 0.00, 0.00, 0.00, 0.00, 0.00, 0.00
608, 193.88, 61.22, 0.00, 0.00, 0.00, 0.00, 0.00, 0.00, 0.00
609, 195.38, 76.58, 0.00, 0.00, 0.00, 0.00, 0.00, 0.00, 0.00
610, 198.06, 58.90, 0.00, 0.00, 0.00, 0.00, 0.00, 0.00, 0.00
611, 194.35, 72.71, 0.00, 0.00, 0.00, 0.00, 0.00, 0.00, 0.00
612, 194.95, 70.63, 0.00, 0.00, 0.00, 0.00, 0.00, 0.00, 0.00
613, 193.99, 61.47, 0.00, 0.00, 0.00, 0.00, 0.00, 0.00, 0.00
614, 189.90, 80.71, 0.00, 0.00, 0.00, 0.00, 0.00, 0.00, 0.00
615, 194.04, 63.08, 0.00, 0.00, 0.00, 0.00, 0.00, 0.00, 0.00
616, 189.72, 71.21, 0.00, 0.00, 0.00, 0.00, 0.00, 0.00, 0.00
617, 188.25, 74.52, 0.00, 0.00, 0.00, 0.00, 0.00, 0.00, 0.00
618, 188.36, 58.56, 0.00, 0.00, 0.00, 0.00, 0.00, 0.00, 0.00
619, 184.92, 79.10, 0.00, 0.00, 0.00, 0.00, 0.00, 0.00, 0.00
620, 186.70, 64.17, 0.00, 0.00, 0.00, 0.00, 0.00, 0.00, 0.00
621, 182.57, 62.47, 0.00, 0.00, 0.00, 0.00, 0.00, 0.00, 0.00
622, 180.65, 74.27, 0.00, 0.00, 0.00, 0.00, 0.00, 0.00, 0.00
623, 182.26, 57.51, 0.00, 0.00, 0.00, 0.00, 0.00, 0.00, 0.00
624, 177.05, 71.59, 0.00, 0.00, 0.00, 0.00, 0.00, 0.00, 0.00
625, 178.43, 59.95, 0.00, 0.00, 0.00, 0.00, 0.00, 0.00, 0.00
626, 175.35, 59.08, 0.00, 0.00, 0.00, 0.00, 0.00, 0.00, 0.00
627, 174.68, 73.67, 0.00, 0.00, 0.00, 0.00, 0.00, 0.00, 0.00
628, 180.00, 54.76, 0.00, 0.00, 0.00, 0.00, 0.00, 0.00, 0.00
629, 175.30, 70.48, 0.00, 0.00, 0.00, 0.00, 0.00, 0.00, 0.00
630, 175.53, 61.96, 0.00, 0.00, 0.00, 0.00, 0.00, 0.00, 0.00
631, 174.99, 52.79, 0.00, 0.00, 0.00, 0.00, 0.00, 0.00, 0.00
632, 172.04, 71.50, 0.00, 0.00, 0.00, 0.00, 0.00, 0.00, 0.00
633, 174.25, 54.11, 0.00, 0.00, 0.00, 0.00, 0.00, 0.00, 0.00
634, 167.08, 58.23, 0.00, 0.00, 0.00, 0.00, 0.00, 0.00, 0.00
635, 168.85, 62.27, 0.00, 0.00, 0.00, 0.00, 0.00, 0.00, 0.00
636, 170.48, 52.26, 0.00, 0.00, 0.00, 0.00, 0.00, 0.00, 0.00
637, 162.94, 69.22, 0.00, 0.00, 0.00, 0.00, 0.00, 0.00, 0.00
638, 167.82, 52.39, 0.00, 0.00, 0.00, 0.00, 0.00, 0.00, 0.00
639, 163.84, 58.03, 0.00, 0.00, 0.00, 0.00, 0.00, 0.00, 0.00
640, 161.85, 66.56, 0.00, 0.00, 0.00, 0.00, 0.00, 0.00, 0.00
641, 164.96, 51.59, 0.00, 0.00, 0.00, 0.00, 0.00, 0.00, 0.00
642, 156.53, 64.84, 0.00, 0.00, 0.00, 0.00, 0.00, 0.00, 0.00
643, 160.02, 54.74, 0.00, 0.00, 0.00, 0.00, 0.00, 0.00, 0.00
644, 155.30, 55.68, 0.00, 0.00, 0.00, 0.00, 0.00, 0.00, 0.00
645, 153.74, 62.92, 0.00, 0.00, 0.00, 0.00, 0.00, 0.00, 0.00
646, 158.72, 47.56, 0.00, 0.00, 0.00, 0.00, 0.00, 0.00, 0.00
647, 151.68, 60.73, 0.00, 0.00, 0.00, 0.00, 0.00, 0.00, 0.00
648, 153.80, 61.74, 0.00, 0.00, 0.00, 0.00, 0.00, 0.00, 0.00
649, 154.25, 55.99, 0.00, 0.00, 0.00, 0.00, 0.00, 0.00, 0.00
650, 150.00, 65.02, 0.00, 0.00, 0.00, 0.00, 0.00, 0.00, 0.00
651, 153.02, 51.79, 0.00, 0.00, 0.00, 0.00, 0.00, 0.00, 0.00
652, 148.39, 56.53, 0.00, 0.00, 0.00, 0.00, 0.00, 0.00, 0.00
653, 151.86, 59.88, 0.00, 0.00, 0.00, 0.00, 0.00, 0.00, 0.00
654, 150.49, 49.67, 0.00, 0.00, 0.00, 0.00, 0.00, 0.00, 0.00
655, 146.43, 62.00, 0.00, 0.00, 0.00, 0.00, 0.00, 0.00, 0.00
656, 152.26, 55.95, 0.00, 0.00, 0.00, 0.00, 0.00, 0.00, 0.00
657, 147.75, 56.77, 0.00, 0.00, 0.00, 0.00, 0.00, 0.00, 0.00
658, 148.10, 61.76, 0.00, 0.00, 0.00, 0.00, 0.00, 0.00, 0.00
659, 150.76, 48.19, 0.00, 0.00, 0.00, 0.00, 0.00, 0.00, 0.00
660, 145.53, 60.93, 0.00, 0.00, 0.00, 0.00, 0.00, 0.00, 0.00
661, 150.14, 62.34, 0.00, 0.00, 0.00, 0.00, 0.00, 0.00, 0.00
662, 144.48, 55.45, 0.00, 0.00, 0.00, 0.00, 0.00, 0.00, 0.00
663, 140.41, 60.93, 0.00, 0.00, 0.00, 0.00, 0.00, 0.00, 0.00
664, 143.27, 52.10, 0.00, 0.00, 0.00, 0.00, 0.00, 0.00, 0.00
665, 138.54, 55.21, 0.00, 0.00, 0.00, 0.00, 0.00, 0.00, 0.00
666, 139.85, 57.40, 0.00, 0.00, 0.00, 0.00, 0.00, 0.00, 0.00
667, 141.49, 50.34, 0.00, 0.00, 0.00, 0.00, 0.00, 0.00, 0.00
668, 140.01, 61.49, 0.00, 0.00, 0.00, 0.00, 0.00, 0.00, 0.00
669, 141.58, 55.97, 0.00, 0.00, 0.00, 0.00, 0.00, 0.00, 0.00
670, 138.63, 56.33, 0.00, 0.00, 0.00, 0.00, 0.00, 0.00, 0.00
671, 139.25, 59.77, 0.00, 0.00, 0.00, 0.00, 0.00, 0.00, 0.00
672, 137.57, 46.58, 0.00, 0.00, 0.00, 0.00, 0.00, 0.00, 0.00
673, 135.74, 57.47, 0.00, 0.00, 0.00, 0.00, 0.00, 0.00, 0.00
674, 137.40, 57.67, 0.00, 0.00, 0.00, 0.00, 0.00, 0.00, 0.00
675, 132.10, 53.62, 0.00, 0.00, 0.00, 0.00, 0.00, 0.00, 0.00
676, 130.20, 59.57, 0.00, 0.00, 0.00, 0.00, 0.00, 0.00, 0.00
677, 131.81, 47.61, 0.00, 0.00, 0.00, 0.00, 0.00, 0.00, 0.00
678, 125.53, 54.52, 0.00, 0.00, 0.00, 0.00, 0.00, 0.00, 0.00
679, 125.21, 52.37, 0.00, 0.00, 0.00, 0.00, 0.00, 0.00, 0.00
680, 124.75, 42.42, 0.00, 0.00, 0.00, 0.00, 0.00, 0.00, 0.00
681, 121.50, 56.30, 0.00, 0.00, 0.00, 0.00, 0.00, 0.00, 0.00
682, 122.53, 47.79, 0.00, 0.00, 0.00, 0.00, 0.00, 0.00, 0.00
683, 120.16, 52.79, 0.00, 0.00, 0.00, 0.00, 0.00, 0.00, 0.00
684, 123.47, 59.70, 0.00, 0.00, 0.00, 0.00, 0.00, 0.00, 0.00
685, 121.19, 46.54, 0.00, 0.00, 0.00, 0.00, 0.00, 0.00, 0.00
686, 119.36, 59.81, 0.00, 0.00, 0.00, 0.00, 0.00, 0.00, 0.00
687, 122.13, 50.43, 0.00, 0.00, 0.00, 0.00, 0.00, 0.00, 0.00
688, 119.11, 51.36, 0.00, 0.00, 0.00, 0.00, 0.00, 0.00, 0.00
689, 118.80, 56.93, 0.00, 0.00, 0.00, 0.00, 0.00, 0.00, 0.00
690, 120.54, 42.16, 0.00, 0.00, 0.00, 0.00, 0.00, 0.00, 0.00
691, 117.77, 57.13, 0.00, 0.00, 0.00, 0.00, 0.00, 0.00, 0.00
692, 118.87, 47.77, 0.00, 0.00, 0.00, 0.00, 0.00, 0.00, 0.00
693, 116.94, 44.32, 0.00, 0.00, 0.00, 0.00, 0.00, 0.00, 0.00
694, 116.05, 54.23, 0.00, 0.00, 0.00, 0.00, 0.00, 0.00, 0.00
695, 119.25, 42.58, 0.00, 0.00, 0.00, 0.00, 0.00, 0.00, 0.00
696, 115.40, 53.22, 0.00, 0.00, 0.00, 0.00, 0.00, 0.00, 0.00
697, 116.83, 51.14, 0.00, 0.00, 0.00, 0.00, 0.00, 0.00, 0.00
698, 114.37, 46.25, 0.00, 0.00, 0.00, 0.00, 0.00, 0.00, 0.00
699, 110.91, 57.31, 0.00, 0.00, 0.00, 0.00, 0.00, 0.00, 0.00
700, 111.27, 44.95, 0.00, 0.00, 0.00, 0.00, 0.00, 0.00, 0.00
701, 107.94, 53.06, 0.00, 0.00, 0.00, 0.00, 0.00, 0.00, 0.00
702, 106.66, 53.42, 0.00, 0.00, 0.00, 0.00, 0.00, 0.00, 0.00
703, 109.84, 45.02, 0.00, 0.00, 0.00, 0.00, 0.00, 0.00, 0.00
704, 106.51, 57.00, 0.00, 0.00, 0.00, 0.00, 0.00, 0.00, 0.00
705, 106.71, 48.15, 0.00, 0.00, 0.00, 0.00, 0.00, 0.00, 0.00
706, 106.64, 52.28, 0.00, 0.00, 0.00, 0.00, 0.00, 0.00, 0.00
707, 105.41, 54.58, 0.00, 0.00, 0.00, 0.00, 0.00, 0.00, 0.00
708, 105.01, 43.54, 0.00, 0.00, 0.00, 0.00, 0.00, 0.00, 0.00
709, 103.15, 59.66, 0.00, 0.00, 0.00, 0.00, 0.00, 0.00, 0.00
710, 104.56, 51.30, 0.00, 0.00, 0.00, 0.00, 0.00, 0.00, 0.00
711, 103.49, 51.30, 0.00, 0.00, 0.00, 0.00, 0.00, 0.00, 0.00
712, 102.62, 56.51, 0.00, 0.00, 0.00, 0.00, 0.00, 0.00, 0.00
713, 103.76, 47.72, 0.00, 0.00, 0.00, 0.00, 0.00, 0.00, 0.00
714, 98.71, 55.99, 0.00, 0.00, 0.00, 0.00, 0.00, 0.00, 0.00
715, 96.34, 49.73, 0.00, 0.00, 0.00, 0.00, 0.00, 0.00, 0.00
716, 96.07, 49.46, 0.00, 0.00, 0.00, 0.00, 0.00, 0.00, 0.00
717, 90.48, 52.08, 0.00, 0.00, 0.00, 0.00, 0.00, 0.00, 0.00
718, 90.88, 42.62, 0.00, 0.00, 0.00, 0.00, 0.00, 0.00, 0.00
719, 89.81, 51.63, 0.00, 0.00, 0.00, 0.00, 0.00, 0.00, 0.00
720, 90.59, 44.23, 0.00, 0.00, 0.00, 0.00, 0.00, 0.00, 0.00
721, 89.61, 43.12, 0.00, 0.00, 0.00, 0.00, 0.00, 0.00, 0.00
722, 88.02, 49.96, 0.00, 0.00, 0.00, 0.00, 0.00, 0.00, 0.00
723, 89.61, 45.66, 0.00, 0.00, 0.00, 0.00, 0.00, 0.00, 0.00
724, 85.70, 46.76, 0.00, 0.00, 0.00, 0.00, 0.00, 0.00, 0.00
725, 83.95, 46.02, 0.00, 0.00, 0.00, 0.00, 0.00, 0.00, 0.00
726, 84.47, 44.06, 0.00, 0.00, 0.00, 0.00, 0.00, 0.00, 0.00
727, 83.35, 46.34, 0.00, 0.00, 0.00, 0.00, 0.00, 0.00, 0.00
728, 71.41, 81.67, 0.00, 0.00, 0.00, 0.00, 0.00, 0.00, 0.00
729, 76.55, 95.04, 0.00, 0.00, 0.00, 0.00, 0.00, 0.00, 0.00
730, 82.48, 47.18, 0.00, 0.00, 0.00, 0.00, 0.00, 0.00, 0.00
731, 80.58, 15.78, 0.00, 0.00, 0.00, 0.00, 0.00, 0.00, 0.00
732, 80.60, 26.20, 0.00, 0.00, 0.00, 0.00, 0.00, 0.00, 0.00
733, 74.95, 47.86, 0.00, 0.00, 0.00, 0.00, 0.00, 0.00, 0.00
734, 74.32, 49.13, 0.00, 0.00, 0.00, 0.00, 0.00, 0.00, 0.00
735, 77.38, 44.73, 0.00, 0.00, 0.00, 0.00, 0.00, 0.00, 0.00
736, 72.20, 45.91, 0.00, 0.00, 0.00, 0.00, 0.00, 0.00, 0.00
737, 71.68, 41.46, 0.00, 0.00, 0.00, 0.00, 0.00, 0.00, 0.00
738, 71.32, 35.79, 0.00, 0.00, 0.00, 0.00, 0.00, 0.00, 0.00
739, 69.16, 36.37, 0.00, 0.00, 0.00, 0.00, 0.00, 0.00, 0.00
740, 67.01, 39.70, 0.00, 0.00, 0.00, 0.00, 0.00, 0.00, 0.00
741, 65.24, 46.29, 0.00, 0.00, 0.00, 0.00, 0.00, 0.00, 0.00
742, 67.48, 43.97, 0.00, 0.00, 0.00, 0.00, 0.00, 0.00, 0.00
743, 68.17, 29.97, 0.00, 0.00, 0.00, 0.00, 0.00, 0.00, 0.00
744, 64.53, 30.58, 0.00, 0.00, 0.00, 0.00, 0.00, 0.00, 0.00
745, 63.30, 41.89, 0.00, 0.00, 0.00, 0.00, 0.00, 0.00, 0.00
746, 60.04, 46.65, 0.00, 0.00, 0.00, 0.00, 0.00, 0.00, 0.00
747, 59.30, 46.63, 0.00, 0.00, 0.00, 0.00, 0.00, 0.00, 0.00
748, 62.25, 32.50, 0.00, 0.00, 0.00, 0.00, 0.00, 0.00, 0.00
749, 58.54, 32.43, 0.00, 0.00, 0.00, 0.00, 0.00, 0.00, 0.00
750, 58.03, 43.94, 0.00, 0.00, 0.00, 0.00, 0.00, 0.00, 0.00
751, 56.66, 44.99, 0.00, 0.00, 0.00, 0.00, 0.00, 0.00, 0.00
752, 58.03, 45.24, 0.00, 0.00, 0.00, 0.00, 0.00, 0.00, 0.00
753, 58.11, 28.19, 0.00, 0.00, 0.00, 0.00, 0.00, 0.00, 0.00
754, 54.61, 26.78, 0.00, 0.00, 0.00, 0.00, 0.00, 0.00, 0.00
755, 54.52, 38.18, 0.00, 0.00, 0.00, 0.00, 0.00, 0.00, 0.00
756, 52.82, 34.67, 0.00, 0.00, 0.00, 0.00, 0.00, 0.00, 0.00
757, 51.74, 41.17, 0.00, 0.00, 0.00, 0.00, 0.00, 0.00, 0.00
758, 54.65, 30.51, 0.00, 0.00, 0.00, 0.00, 0.00, 0.00, 0.00
759, 53.42, 28.39, 0.00, 0.00, 0.00, 0.00, 0.00, 0.00, 0.00
760, 53.22, 45.17, 0.00, 0.00, 0.00, 0.00, 0.00, 0.00, 0.00
761, 53.71, 33.86, 0.00, 0.00, 0.00, 0.00, 0.00, 0.00, 0.00
762, 49.37, 41.15, 0.00, 0.00, 0.00, 0.00, 0.00, 0.00, 0.00
763, 53.26, 34.44, 0.00, 0.00, 0.00, 0.00, 0.00, 0.00, 0.00
764, 53.60, 29.37, 0.00, 0.00, 0.00, 0.00, 0.00, 0.00, 0.00
765, 46.02, 46.65, 0.00, 0.00, 0.00, 0.00, 0.00, 0.00, 0.00
766, 43.32, 25.19, 0.00, 0.00, 0.00, 0.00, 0.00, 0.00, 0.00
767, 40.23, 28.65, 0.00, 0.00, 0.00, 0.00, 0.00, 0.00, 0.00
768, 32.10, 20.34, 0.00, 0.00, 0.00, 0.00, 0.00, 0.00, 0.00
769, 27.27, 1.16, 0.00, 0.00, 0.00, 0.00, 0.00, 0.00, 0.00
770, 16.09, 7.73, 0.00, 0.00, 0.00, 0.00, 0.00, 0.00, 0.00
771, 16.09, -5.92, 0.00, 0.00, 0.00, 0.00, 0.00, 0.00, 0.00
772, 6.82, -3.08, 0.00, 0.00, 0.00, 0.00, 0.00, 0.00, 0.00
773, -0.56, -10.51, 0.00, 0.00, 0.00, 0.00, 0.00, 0.00, 0.00
774, -1.18, -28.70, 0.00, 0.00, 0.00, 0.00, 0.00, 0.00, 0.00
775, -6.19, -12.00, 0.00, 0.00, 0.00, 0.00, 0.00, 0.00, 0.00
776, -1.36, -20.70, 0.00, 0.00, 0.00, 0.00, 0.00, 0.00, 0.00
777, -6.50, -15.96, 0.00, 0.00, 0.00, 0.00, 0.00, 0.00, 0.00
778, -4.49, -9.59, 0.00, 0.00, 0.00, 0.00, 0.00, 0.00, 0.00
779, -3.89, -21.70, 0.00, 0.00, 0.00, 0.00, 0.00, 0.00, 0.00
780, -10.37, -5.77, 0.00, 0.00, 0.00, 0.00, 0.00, 0.00, 0.00
781, -6.86, -15.33, 0.00, 0.00, 0.00, 0.00, 0.00, 0.00, 0.00
782, -7.26, -14.44, 0.00, 0.00, 0.00, 0.00, 0.00, 0.00, 0.00
783, -9.32, -5.39, 0.00, 0.00, 0.00, 0.00, 0.00, 0.00, 0.00
784, -4.87, -20.38, 0.00, 0.00, 0.00, 0.00, 0.00, 0.00, 0.00
785, -7.26, -4.90, 0.00, 0.00, 0.00, 0.00, 0.00, 0.00, 0.00
786, -4.98, -10.17, 0.00, 0.00, 0.00, 0.00, 0.00, 0.00, 0.00
787, -4.25, -11.78, 0.00, 0.00, 0.00, 0.00, 0.00, 0.00, 0.00
788, -7.38, 0.85, 0.00, 0.00, 0.00, 0.00, 0.00, 0.00, 0.00
789, -5.10, -14.91, 0.00, 0.00, 0.00, 0.00, 0.00, 0.00, 0.00
790, -12.38, -4.00, 0.00, 0.00, 0.00, 0.00, 0.00, 0.00, 0.00
791, -13.12, -6.39, 0.00, 0.00, 0.00, 0.00, 0.00, 0.00, 0.00
792, -15.91, -18.80, 0.00, 0.00, 0.00, 0.00, 0.00, 0.00, 0.00
793, -20.63, -6.48, 0.00, 0.00, 0.00, 0.00, 0.00, 0.00, 0.00
794, -14.15, -15.69, 0.00, 0.00, 0.00, 0.00, 0.00, 0.00, 0.00
795, -17.48, -11.40, 0.00, 0.00, 0.00, 0.00, 0.00, 0.00, 0.00
796, -18.84, -11.78, 0.00, 0.00, 0.00, 0.00, 0.00, 0.00, 0.00
797, -14.86, -18.78, 0.00, 0.00, 0.00, 0.00, 0.00, 0.00, 0.00
798, -19.42, -6.59, 0.00, 0.00, 0.00, 0.00, 0.00, 0.00, 0.00
799, -15.02, -14.84, 0.00, 0.00, 0.00, 0.00, 0.00, 0.00, 0.00
800, -20.83, -11.69, 0.00, 0.00, 0.00, 0.00, 0.00, 0.00, 0.00
801, -21.77, -6.97, 0.00, 0.00, 0.00, 0.00, 0.00, 0.00, 0.00
802, -18.69, -17.17, 0.00, 0.00, 0.00, 0.00, 0.00, 0.00, 0.00
803, -23.13, -6.50, 0.00, 0.00, 0.00, 0.00, 0.00, 0.00, 0.00
804, -20.12, -10.46, 0.00, 0.00, 0.00, 0.00, 0.00, 0.00, 0.00
805, -21.52, -11.89, 0.00, 0.00, 0.00, 0.00, 0.00, 0.00, 0.00
806, -23.89, -5.12, 0.00, 0.00, 0.00, 0.00, 0.00, 0.00, 0.00
807, -19.69, -14.22, 0.00, 0.00, 0.00, 0.00, 0.00, 0.00, 0.00
808, -27.72, -9.43, 0.00, 0.00, 0.00, 0.00, 0.00, 0.00, 0.00
809, -27.02, -12.36, 0.00, 0.00, 0.00, 0.00, 0.00, 0.00, 0.00
810, -28.43, -14.91, 0.00, 0.00, 0.00, 0.00, 0.00, 0.00, 0.00
811, -29.77, -7.51, 0.00, 0.00, 0.00, 0.00, 0.00, 0.00, 0.00
812, -24.52, -12.32, 0.00, 0.00, 0.00, 0.00, 0.00, 0.00, 0.00
813, -26.51, -7.15, 0.00, 0.00, 0.00, 0.00, 0.00, 0.00, 0.00
814, -23.09, -3.17, 0.00, 0.00, 0.00, 0.00, 0.00, 0.00, 0.00
815, -21.57, -9.03, 0.00, 0.00, 0.00, 0.00, 0.00, 0.00, 0.00
816, -22.08, -1.50, 0.00, 0.00, 0.00, 0.00, 0.00, 0.00, 0.00
817, -22.31, -1.68, 0.00, 0.00, 0.00, 0.00, 0.00, 0.00, 0.00
818, -26.62, -4.09, 0.00, 0.00, 0.00, 0.00, 0.00, 0.00, 0.00
819, -26.82, -1.50, 0.00, 0.00, 0.00, 0.00, 0.00, 0.00, 0.00
820, -26.60, -9.48, 0.00, 0.00, 0.00, 0.00, 0.00, 0.00, 0.00
821, -32.68, -10.48, 0.00, 0.00, 0.00, 0.00, 0.00, 0.00, 0.00
822, -30.13, -9.95, 0.00, 0.00, 0.00, 0.00, 0.00, 0.00, 0.00
823, -32.01, -18.80, 0.00, 0.00, 0.00, 0.00, 0.00, 0.00, 0.00
824, -33.68, -8.43, 0.00, 0.00, 0.00, 0.00, 0.00, 0.00, 0.00
825, -30.98, -11.73, 0.00, 0.00, 0.00, 0.00, 0.00, 0.00, 0.00
826, -32.83, -15.02, 0.00, 0.00, 0.00, 0.00, 0.00, 0.00, 0.00
827, -32.99, -10.91, 0.00, 0.00, 0.00, 0.00, 0.00, 0.00, 0.00
828, -33.86, -14.98, 0.00, 0.00, 0.00, 0.00, 0.00, 0.00, 0.00
829, -36.90, -5.99, 0.00, 0.00, 0.00, 0.00, 0.00, 0.00, 0.00
830, -36.97, -8.54, 0.00, 0.00, 0.00, 0.00, 0.00, 0.00, 0.00
831, -38.80, -15.42, 0.00, 0.00, 0.00, 0.00, 0.00, 0.00, 0.00
832, -39.00, -5.41, 0.00, 0.00, 0.00, 0.00, 0.00, 0.00, 0.00
833, -40.61, -21.01, 0.00, 0.00, 0.00, 0.00, 0.00, 0.00, 0.00
834, -42.65, -14.64, 0.00, 0.00, 0.00, 0.00, 0.00, 0.00, 0.00
835, -40.17, -9.72, 0.00, 0.00, 0.00, 0.00, 0.00, 0.00, 0.00
836, -41.02, -18.08, 0.00, 0.00, 0.00, 0.00, 0.00, 0.00, 0.00
837, -41.69, -5.61, 0.00, 0.00, 0.00, 0.00, 0.00, 0.00, 0.00
838, -40.12, -15.91, 0.00, 0.00, 0.00, 0.00, 0.00, 0.00, 0.00
839, -41.75, -12.58, 0.00, 0.00, 0.00, 0.00, 0.00, 0.00, 0.00
840, -42.18, -6.93, 0.00, 0.00, 0.00, 0.00, 0.00, 0.00, 0.00
841, -41.93, -16.74, 0.00, 0.00, 0.00, 0.00, 0.00, 0.00, 0.00
842, -44.19, -1.77, 0.00, 0.00, 0.00, 0.00, 0.00, 0.00, 0.00
843, -43.65, -16.03, 0.00, 0.00, 0.00, 0.00, 0.00, 0.00, 0.00
844, -45.89, -19.71, 0.00, 0.00, 0.00, 0.00, 0.00, 0.00, 0.00
845, -46.38, -9.50, 0.00, 0.00, 0.00, 0.00, 0.00, 0.00, 0.00
846, -45.93, -18.91, 0.00, 0.00, 0.00, 0.00, 0.00, 0.00, 0.00
847, -51.54, -6.97, 0.00, 0.00, 0.00, 0.00, 0.00, 0.00, 0.00
848, -45.37, -12.74, 0.00, 0.00, 0.00, 0.00, 0.00, 0.00, 0.00
849, -43.30, -15.18, 0.00, 0.00, 0.00, 0.00, 0.00, 0.00, 0.00
850, -46.56, -5.23, 0.00, 0.00, 0.00, 0.00, 0.00, 0.00, 0.00
851, -43.76, -15.58, 0.00, 0.00, 0.00, 0.00, 0.00, 0.00, 0.00
852, -51.50, -5.32, 0.00, 0.00, 0.00, 0.00, 0.00, 0.00, 0.00
853, -52.39, -15.76, 0.00, 0.00, 0.00, 0.00, 0.00, 0.00, 0.00
854, -53.62, -17.19, 0.00, 0.00, 0.00, 0.00, 0.00, 0.00, 0.00
855, -60.77, -7.69, 0.00, 0.00, 0.00, 0.00, 0.00, 0.00, 0.00
856, -52.95, -23.63, 0.00, 0.00, 0.00, 0.00, 0.00, 0.00, 0.00
857, -50.72, -9.54, 0.00, 0.00, 0.00, 0.00, 0.00, 0.00, 0.00
858, -47.70, -5.23, 0.00, 0.00, 0.00, 0.00, 0.00, 0.00, 0.00
859, -49.89, -16.38, 0.00, 0.00, 0.00, 0.00, 0.00, 0.00, 0.00
860, -54.14, -4.47, 0.00, 0.00, 0.00, 0.00, 0.00, 0.00, 0.00
861, -54.74, -18.24, 0.00, 0.00, 0.00, 0.00, 0.00, 0.00, 0.00
862, -61.18, -11.69, 0.00, 0.00, 0.00, 0.00, 0.00, 0.00, 0.00
863, -61.87, -9.54, 0.00, 0.00, 0.00, 0.00, 0.00, 0.00, 0.00
864, -57.22, -16.29, 0.00, 0.00, 0.00, 0.00, 0.00, 0.00, 0.00
865, -59.88, -2.15, 0.00, 0.00, 0.00, 0.00, 0.00, 0.00, 0.00
866, -56.53, -11.31, 0.00, 0.00, 0.00, 0.00, 0.00, 0.00, 0.00
867, -60.06, -9.75, 0.00, 0.00, 0.00, 0.00, 0.00, 0.00, 0.00
868, -59.32, -5.70, 0.00, 0.00, 0.00, 0.00, 0.00, 0.00, 0.00
869, -58.43, -15.13, 0.00, 0.00, 0.00, 0.00, 0.00, 0.00, 0.00
870, -64.84, -5.86, 0.00, 0.00, 0.00, 0.00, 0.00, 0.00, 0.00
871, -62.34, -15.65, 0.00, 0.00, 0.00, 0.00, 0.00, 0.00, 0.00
872, -64.08, -15.00, 0.00, 0.00, 0.00, 0.00, 0.00, 0.00, 0.00
873, -62.92, -6.24, 0.00, 0.00, 0.00, 0.00, 0.00, 0.00, 0.00
874, -62.81, -17.68, 0.00, 0.00, 0.00, 0.00, 0.00, 0.00, 0.00
875, -67.77, -7.96, 0.00, 0.00, 0.00, 0.00, 0.00, 0.00, 0.00
876, -62.20, -11.00, 0.00, 0.00, 0.00, 0.00, 0.00, 0.00, 0.00
877, -65.07, -11.44, 0.00, 0.00, 0.00, 0.00, 0.00, 0.00, 0.00
878, -70.54, -10.59, 0.00, 0.00, 0.00, 0.00, 0.00, 0.00, 0.00
879, -66.61, -15.47, 0.00, 0.00, 0.00, 0.00, 0.00, 0.00, 0.00
880, -71.53, -12.20, 0.00, 0.00, 0.00, 0.00, 0.00, 0.00, 0.00
881, -71.70, -16.72, 0.00, 0.00, 0.00, 0.00, 0.00, 0.00, 0.00
882, -72.20, -15.38, 0.00, 0.00, 0.00, 0.00, 0.00, 0.00, 0.00
883, -73.43, -10.93, 0.00, 0.00, 0.00, 0.00, 0.00, 0.00, 0.00
884, -71.08, -13.90, 0.00, 0.00, 0.00, 0.00, 0.00, 0.00, 0.00
885, -72.35, -9.07, 0.00, 0.00, 0.00, 0.00, 0.00, 0.00, 0.00
886, -69.51, -10.21, 0.00, 0.00, 0.00, 0.00, 0.00, 0.00, 0.00
887, -69.09, -7.49, 0.00, 0.00, 0.00, 0.00, 0.00, 0.00, 0.00
888, -71.19, -9.66, 0.00, 0.00, 0.00, 0.00, 0.00, 0.00, 0.00
889, -70.50, -9.52, 0.00, 0.00, 0.00, 0.00, 0.00, 0.00, 0.00
890, -73.67, -5.77, 0.00, 0.00, 0.00, 0.00, 0.00, 0.00, 0.00
891, -72.98, -12.29, 0.00, 0.00, 0.00, 0.00, 0.00, 0.00, 0.00
892, -74.88, -11.56, 0.00, 0.00, 0.00, 0.00, 0.00, 0.00, 0.00
893, -74.92, -14.66, 0.00, 0.00, 0.00, 0.00, 0.00, 0.00, 0.00
894, -76.55, -13.52, 0.00, 0.00, 0.00, 0.00, 0.00, 0.00, 0.00
895, -77.00, -10.30, 0.00, 0.00, 0.00, 0.00, 0.00, 0.00, 0.00
896, -79.19, -19.54, 0.00, 0.00, 0.00, 0.00, 0.00, 0.00, 0.00
897, -81.83, -11.94, 0.00, 0.00, 0.00, 0.00, 0.00, 0.00, 0.00
898, -80.78, -18.93, 0.00, 0.00, 0.00, 0.00, 0.00, 0.00, 0.00
899, -83.42, -17.72, 0.00, 0.00, 0.00, 0.00, 0.00, 0.00, 0.00
900, -81.36, -12.47, 0.00, 0.00, 0.00, 0.00, 0.00, 0.00, 0.00
901, -79.33, -17.95, 0.00, 0.00, 0.00, 0.00, 0.00, 0.00, 0.00
902, -82.10, -10.04, 0.00, 0.00, 0.00, 0.00, 0.00, 0.00, 0.00
903, -81.43, -19.09, 0.00, 0.00, 0.00, 0.00, 0.00, 0.00, 0.00
904, -79.51, -14.73, 0.00, 0.00, 0.00, 0.00, 0.00, 0.00, 0.00
905, -81.90, -10.84, 0.00, 0.00, 0.00, 0.00, 0.00, 0.00, 0.00
906, -81.70, -21.01, 0.00, 0.00, 0.00, 0.00, 0.00, 0.00, 0.00
907, -84.65, -5.77, 0.00, 0.00, 0.00, 0.00, 0.00, 0.00, 0.00
908, -82.86, -14.69, 0.00, 0.00, 0.00, 0.00, 0.00, 0.00, 0.00
909, -84.91, -15.18, 0.00, 0.00, 0.00, 0.00, 0.00, 0.00, 0.00
910, -84.78, -8.96, 0.00, 0.00, 0.00, 0.00, 0.00, 0.00, 0.00
911, -80.51, -21.59, 0.00, 0.00, 0.00, 0.00, 0.00, 0.00, 0.00
912, -85.74, -9.50, 0.00, 0.00, 0.00, 0.00, 0.00, 0.00, 0.00
913, -84.80, -16.92, 0.00, 0.00, 0.00, 0.00, 0.00, 0.00, 0.00
914, -87.17, -17.79, 0.00, 0.00, 0.00, 0.00, 0.00, 0.00, 0.00
915, -91.11, -7.69, 0.00, 0.00, 0.00, 0.00, 0.00, 0.00, 0.00
916, -85.18, -22.66, 0.00, 0.00, 0.00, 0.00, 0.00, 0.00, 0.00
917, -91.75, -11.89, 0.00, 0.00, 0.00, 0.00, 0.00, 0.00, 0.00
918, -89.07, -17.97, 0.00, 0.00, 0.00, 0.00, 0.00, 0.00, 0.00
919, -85.27, -19.29, 0.00, 0.00, 0.00, 0.00, 0.00, 0.00, 0.00
920, -90.06, -7.38, 0.00, 0.00, 0.00, 0.00, 0.00, 0.00, 0.00
921, -85.50, -22.08, 0.00, 0.00, 0.00, 0.00, 0.00, 0.00, 0.00
922, -89.50, -7.04, 0.00, 0.00, 0.00, 0.00, 0.00, 0.00, 0.00
923, -85.07, -9.68, 0.00, 0.00, 0.00, 0.00, 0.00, 0.00, 0.00
924, -85.07, -20.07, 0.00, 0.00, 0.00, 0.00, 0.00, 0.00, 0.00
925, -91.84, -2.06, 0.00, 0.00, 0.00, 0.00, 0.00, 0.00, 0.00
926, -83.01, -17.03, 0.00, 0.00, 0.00, 0.00, 0.00, 0.00, 0.00
927, -89.72, -11.15, 0.00, 0.00, 0.00, 0.00, 0.00, 0.00, 0.00
928, -89.47, -9.01, 0.00, 0.00, 0.00, 0.00, 0.00, 0.00, 0.00
929, -87.91, -23.45, 0.00, 0.00, 0.00, 0.00, 0.00, 0.00, 0.00
930, -98.26, -8.05, 0.00, 0.00, 0.00, 0.00, 0.00, 0.00, 0.00
931, -91.17, -24.52, 0.00, 0.00, 0.00, 0.00, 0.00, 0.00, 0.00
932, -94.93, -16.67, 0.00, 0.00, 0.00, 0.00, 0.00, 0.00, 0.00
933, -94.03, -7.55, 0.00, 0.00, 0.00, 0.00, 0.00, 0.00, 0.00
934, -89.50, -21.52, 0.00, 0.00, 0.00, 0.00, 0.00, 0.00, 0.00
935, -94.77, -9.23, 0.00, 0.00, 0.00, 0.00, 0.00, 0.00, 0.00
936, -88.65, -19.58, 0.00, 0.00, 0.00, 0.00, 0.00, 0.00, 0.00
937, -92.67, -19.62, 0.00, 0.00, 0.00, 0.00, 0.00, 0.00, 0.00
938, -93.23, -11.73, 0.00, 0.00, 0.00, 0.00, 0.00, 0.00, 0.00
939, -88.33, -26.69, 0.00, 0.00, 0.00, 0.00, 0.00, 0.00, 0.00
940, -95.60, -9.45, 0.00, 0.00, 0.00, 0.00, 0.00, 0.00, 0.00
941, -90.46, -17.30, 0.00, 0.00, 0.00, 0.00, 0.00, 0.00, 0.00
942, -97.14, -25.44, 0.00, 0.00, 0.00, 0.00, 0.00, 0.00, 0.00
943, -103.47, -14.10, 0.00, 0.00, 0.00, 0.00, 0.00, 0.00, 0.00
944, -96.07, -24.48, 0.00, 0.00, 0.00, 0.00, 0.00, 0.00, 0.00
945, -92.29, -10.66, 0.00, 0.00, 0.00, 0.00, 0.00, 0.00, 0.00
946, -81.58, -6.21, 0.00, 0.00, 0.00, 0.00, 0.00, 0.00, 0.00
947, -74.48, -6.64, 0.00, 0.00, 0.00, 0.00, 0.00, 0.00, 0.00
948, -66.38, 7.26, 0.00, 0.00, 0.00, 0.00, 0.00, 0.00, 0.00
949, -58.58, -4.29, 0.00, 0.00, 0.00, 0.00, 0.00, 0.00, 0.00
950, -58.87, 2.32, 0.00, 0.00, 0.00, 0.00, 0.00, 0.00, 0.00
951, -56.21, 8.99, 0.00, 0.00, 0.00, 0.00, 0.00, 0.00, 0.00
952, -53.87, -0.13, 0.00, 0.00, 0.00, 0.00, 0.00, 0.00, 0.00
953, -50.63, 15.69, 0.00, 0.00, 0.00, 0.00, 0.00, 0.00, 0.00
954, -45.31, 9.99, 0.00, 0.00, 0.00, 0.00, 0.00, 0.00, 0.00
955, -51.83, 8.05, 0.00, 0.00, 0.00, 0.00, 0.00, 0.00, 0.00
956, -48.37, 21.28, 0.00, 0.00, 0.00, 0.00, 0.00, 0.00, 0.00
957, -43.79, 8.45, 0.00, 0.00, 0.00, 0.00, 0.00, 0.00, 0.00
958, -49.11, 15.15, 0.00, 0.00, 0.00, 0.00, 0.00, 0.00, 0.00
959, -46.89, 12.70, 0.00, 0.00, 0.00, 0.00, 0.00, 0.00, 0.00
960, -51.32, 0.60, 0.00, 0.00, 0.00, 0.00, 0.00, 0.00, 0.00
961, -58.76, 10.30, 0.00, 0.00, 0.00, 0.00, 0.00, 0.00, 0.00
962, -55.21, -0.87, 0.00, 0.00, 0.00, 0.00, 0.00, 0.00, 0.00
963, -60.35, -1.03, 0.00, 0.00, 0.00, 0.00, 0.00, 0.00, 0.00
964, -58.34, 5.36, 0.00, 0.00, 0.00, 0.00, 0.00, 0.00, 0.00
965, -56.73, -6.01, 0.00, 0.00, 0.00, 0.00, 0.00, 0.00, 0.00
966, -64.82, 3.93, 0.00, 0.00, 0.00, 0.00, 0.00, 0.00, 0.00
967, -61.82, -2.19, 0.00, 0.00, 0.00, 0.00, 0.00, 0.00, 0.00
968, -65.09, -5.70, 0.00, 0.00, 0.00, 0.00, 0.00, 0.00, 0.00
969, -67.88, 6.21, 0.00, 0.00, 0.00, 0.00, 0.00, 0.00, 0.00
970, -65.49, -9.52, 0.00, 0.00, 0.00, 0.00, 0.00, 0.00, 0.00
971, -66.90, 1.01, 0.00, 0.00, 0.00, 0.00, 0.00, 0.00, 0.00
972, -63.19, -1.34, 0.00, 0.00, 0.00, 0.00, 0.00, 0.00, 0.00
973, -66.21, -10.75, 0.00, 0.00, 0.00, 0.00, 0.00, 0.00, 0.00
974, -71.15, 4.98, 0.00, 0.00, 0.00, 0.00, 0.00, 0.00, 0.00
975, -68.82, -10.21, 0.00, 0.00, 0.00, 0.00, 0.00, 0.00, 0.00
976, -70.77, -2.73, 0.00, 0.00, 0.00, 0.00, 0.00, 0.00, 0.00
977, -73.18, -0.31, 0.00, 0.00, 0.00, 0.00, 0.00, 0.00, 0.00
978, -72.71, -15.11, 0.00, 0.00, 0.00, 0.00, 0.00, 0.00, 0.00
979, -74.21, 3.60, 0.00, 0.00, 0.00, 0.00, 0.00, 0.00, 0.00
980, -70.07, -7.73, 0.00, 0.00, 0.00, 0.00, 0.00, 0.00, 0.00
981, -71.46, -4.22, 0.00, 0.00, 0.00, 0.00, 0.00, 0.00, 0.00
982, -72.73, 4.14, 0.00, 0.00, 0.00, 0.00, 0.00, 0.00, 0.00
983, -69.07, -14.06, 0.00, 0.00, 0.00, 0.00, 0.00, 0.00, 0.00
984, -75.77, 3.42, 0.00, 0.00, 0.00, 0.00, 0.00, 0.00, 0.00
985, -72.37, -6.41, 0.00, 0.00, 0.00, 0.00, 0.00, 0.00, 0.00
986, -75.06, -13.79, 0.00, 0.00, 0.00, 0.00, 0.00, 0.00, 0.00
987, -76.55, 3.31, 0.00, 0.00, 0.00, 0.00, 0.00, 0.00, 0.00
988, -71.66, -13.46, 0.00, 0.00, 0.00, 0.00, 0.00, 0.00, 0.00
989, -77.05, 2.79, 0.00, 0.00, 0.00, 0.00, 0.00, 0.00, 0.00
990, -73.20, -1.74, 0.00, 0.00, 0.00, 0.00, 0.00, 0.00, 0.00
991, -72.37, -8.67, 0.00, 0.00, 0.00, 0.00, 0.00, 0.00, 0.00
992, -77.27, 6.59, 0.00, 0.00, 0.00, 0.00, 0.00, 0.00, 0.00
993, -71.39, -14.44, 0.00, 0.00, 0.00, 0.00, 0.00, 0.00, 0.00
994, -77.23, -3.35, 0.00, 0.00, 0.00, 0.00, 0.00, 0.00, 0.00
995, -75.73, -3.06, 0.00, 0.00, 0.00, 0.00, 0.00, 0.00, 0.00
996, -73.20, -13.34, 0.00, 0.00, 0.00, 0.00, 0.00, 0.00, 0.00
997, -81.29, 5.01, 0.00, 0.00, 0.00, 0.00, 0.00, 0.00, 0.00
998, -73.40, -12.94, 0.00, 0.00, 0.00, 0.00, 0.00, 0.00, 0.00
999, -79.55, -5.39, 0.00, 0.00, 0.00, 0.00, 0.00, 0.00, 0.00
1000, -80.87, -0.58, 0.00, 0.00, 0.00, 0.00, 0.00, 0.00, 0.00
1001, -81.09, -18.37, 0.00, 0.00, 0.00, 0.00, 0.00, 0.00, 0.00
1002, -89.79, 3.00, 0.00, 0.00, 0.00, 0.00, 0.00, 0.00, 0.00
1003, -82.86, -11.51, 0.00, 0.00, 0.00, 0.00, 0.00, 0.00, 0.00
1004, -88.13, -8.27, 0.00, 0.00, 0.00, 0.00, 0.00, 0.00, 0.00
1005, -89.27, 3.87, 0.00, 0.00, 0.00, 0.00, 0.00, 0.00, 0.00
1006, -81.67, -10.93, 0.00, 0.00, 0.00, 0.00, 0.00, 0.00, 0.00
1007, -88.49, 6.95, 0.00, 0.00, 0.00, 0.00, 0.00, 0.00, 0.00
1008, -83.35, -3.33, 0.00, 0.00, 0.00, 0.00, 0.00, 0.00, 0.00
1009, -86.61, -8.74, 0.00, 0.00, 0.00, 0.00, 0.00, 0.00, 0.00
1010, -87.86, 6.03, 0.00, 0.00, 0.00, 0.00, 0.00, 0.00, 0.00
1011, -80.29, -13.59, 0.00, 0.00, 0.00, 0.00, 0.00, 0.00, 0.00
1012, -89.65, 2.03, 0.00, 0.00, 0.00, 0.00, 0.00, 0.00, 0.00
1013, -82.88, 1.34, 0.00, 0.00, 0.00, 0.00, 0.00, 0.00, 0.00
1014, -83.24, -7.38, 0.00, 0.00, 0.00, 0.00, 0.00, 0.00, 0.00
1015, -89.16, 6.24, 0.00, 0.00, 0.00, 0.00, 0.00, 0.00, 0.00
1016, -82.21, -11.80, 0.00, 0.00, 0.00, 0.00, 0.00, 0.00, 0.00
1017, -89.76, -3.04, 0.00, 0.00, 0.00, 0.00, 0.00, 0.00, 0.00
1018, -87.98, -0.96, 0.00, 0.00, 0.00, 0.00, 0.00, 0.00, 0.00
1019, -86.81, -13.43, 0.00, 0.00, 0.00, 0.00, 0.00, 0.00, 0.00
1020, -93.97, 4.63, 0.00, 0.00, 0.00, 0.00, 0.00, 0.00, 0.00
1021, -85.92, -9.30, 0.00, 0.00, 0.00, 0.00, 0.00, 0.00, 0.00
1022, -95.71, -6.82, 0.00, 0.00, 0.00, 0.00, 0.00, 0.00, 0.00
1023, -94.86, 1.68, 0.00, 0.00, 0.00, 0.00, 0.00, 0.00, 0.00
1024, -92.74, -15.09, 0.00, 0.00, 0.00, 0.00, 0.00, 0.00, 0.00
1025, -101.86, 1.12, 0.00, 0.00, 0.00, 0.00, 0.00, 0.00, 0.00
1026, -93.68, -8.69, 0.00, 0.00, 0.00, 0.00, 0.00, 0.00, 0.00
1027, -99.13, -11.20, 0.00, 0.00, 0.00, 0.00, 0.00, 0.00, 0.00
1028, -98.30, 0.92, 0.00, 0.00, 0.00, 0.00, 0.00, 0.00, 0.00
1029, -93.18, -15.15, 0.00, 0.00, 0.00, 0.00, 0.00, 0.00, 0.00
1030, -99.98, 0.80, 0.00, 0.00, 0.00, 0.00, 0.00, 0.00, 0.00
1031, -93.12, -5.43, 0.00, 0.00, 0.00, 0.00, 0.00, 0.00, 0.00
1032, -97.23, -10.91, 0.00, 0.00, 0.00, 0.00, 0.00, 0.00, 0.00
1033, -98.77, 4.00, 0.00, 0.00, 0.00, 0.00, 0.00, 0.00, 0.00
1034, -95.49, -12.38, 0.00, 0.00, 0.00, 0.00, 0.00, 0.00, 0.00
1035, -100.78, -2.73, 0.00, 0.00, 0.00, 0.00, 0.00, 0.00, 0.00
1036, -97.54, 0.04, 0.00, 0.00, 0.00, 0.00, 0.00, 0.00, 0.00
1037, -97.81, -9.30, 0.00, 0.00, 0.00, 0.00, 0.00, 0.00, 0.00
1038, -100.61, 3.35, 0.00, 0.00, 0.00, 0.00, 0.00, 0.00, 0.00
1039, -96.65, -7.58, 0.00, 0.00, 0.00, 0.00, 0.00, 0.00, 0.00
1040, -101.19, -6.21, 0.00, 0.00, 0.00, 0.00, 0.00, 0.00, 0.00
1041, -101.41, -1.79, 0.00, 0.00, 0.00, 0.00, 0.00, 0.00, 0.00
1042, -101.66, -14.10, 0.00, 0.00, 0.00, 0.00, 0.00, 0.00, 0.00
1043, -104.03, -1.54, 0.00, 0.00, 0.00, 0.00, 0.00, 0.00, 0.00
1044, -100.45, -7.73, 0.00, 0.00, 0.00, 0.00, 0.00, 0.00, 0.00
1045, -104.81, -11.85, 0.00, 0.00, 0.00, 0.00, 0.00, 0.00, 0.00
1046, -105.61, -0.34, 0.00, 0.00, 0.00, 0.00, 0.00, 0.00, 0.00
1047, -103.73, -14.10, 0.00, 0.00, 0.00, 0.00, 0.00, 0.00, 0.00
1048, -107.91, -6.26, 0.00, 0.00, 0.00, 0.00, 0.00, 0.00, 0.00
1049, -102.68, -7.26, 0.00, 0.00, 0.00, 0.00, 0.00, 0.00, 0.00
1050, -104.07, -13.70, 0.00, 0.00, 0.00, 0.00, 0.00, 0.00, 0.00
1051, -102.64, 2.08, 0.00, 0.00, 0.00, 0.00, 0.00, 0.00, 0.00
1052, -100.18, -11.47, 0.00, 0.00, 0.00, 0.00, 0.00, 0.00, 0.00
1053, -105.43, -5.28, 0.00, 0.00, 0.00, 0.00, 0.00, 0.00, 0.00
1054, -104.78, -1.34, 0.00, 0.00, 0.00, 0.00, 0.00, 0.00, 0.00
1055, -105.46, -11.18, 0.00, 0.00, 0.00, 0.00, 0.00, 0.00, 0.00
1056, -109.68, 4.22, 0.00, 0.00, 0.00, 0.00, 0.00, 0.00, 0.00
1057, -105.54, -5.95, 0.00, 0.00, 0.00, 0.00, 0.00, 0.00, 0.00
1058, -107.24, -4.90, 0.00, 0.00, 0.00, 0.00, 0.00, 0.00, 0.00
1059, -108.61, 1.12, 0.00, 0.00, 0.00, 0.00, 0.00, 0.00, 0.00
1060, -104.47, -12.70, 0.00, 0.00, 0.00, 0.00, 0.00, 0.00, 0.00
1061, -106.71, 0.83, 0.00, 0.00, 0.00, 0.00, 0.00, 0.00, 0.00
1062, -104.61, -8.34, 0.00, 0.00, 0.00, 0.00, 0.00, 0.00, 0.00
1063, -103.40, -8.56, 0.00, 0.00, 0.00, 0.00, 0.00, 0.00, 0.00
1064, -109.61, 9.19, 0.00, 0.00, 0.00, 0.00, 0.00, 0.00, 0.00
1065, -112.76, -16.88, 0.00, 0.00, 0.00, 0.00, 0.00, 0.00, 0.00
1066, -117.17, -10.71, 0.00, 0.00, 0.00, 0.00, 0.00, 0.00, 0.00
1067, -122.91, -15.65, 0.00, 0.00, 0.00, 0.00, 0.00, 0.00, 0.00
1068, -128.84, -25.82, 0.00, 0.00, 0.00, 0.00, 0.00, 0.00, 0.00
1069, -136.26, -23.92, 0.00, 0.00, 0.00, 0.00, 0.00, 0.00, 0.00
1070, -137.80, -38.38, 0.00, 0.00, 0.00, 0.00, 0.00, 0.00, 0.00
1071, -147.50, -32.23, 0.00, 0.00, 0.00, 0.00, 0.00, 0.00, 0.00
1072, -150.45, -43.83, 0.00, 0.00, 0.00, 0.00, 0.00, 0.00, 0.00
1073, -152.62, -56.97, 0.00, 0.00, 0.00, 0.00, 0.00, 0.00, 0.00
1074, -158.27, -43.99, 0.00, 0.00, 0.00, 0.00, 0.00, 0.00, 0.00
1075, -150.74, -50.11, 0.00, 0.00, 0.00, 0.00, 0.00, 0.00, 0.00
1076, -154.99, -44.44, 0.00, 0.00, 0.00, 0.00, 0.00, 0.00, 0.00
1077, -156.51, -47.07, 0.00, 0.00, 0.00, 0.00, 0.00, 0.00, 0.00
1078, -153.67, -53.85, 0.00, 0.00, 0.00, 0.00, 0.00, 0.00, 0.00
1079, -158.07, -42.38, 0.00, 0.00, 0.00, 0.00, 0.00, 0.00, 0.00
1080, -155.28, -51.57, 0.00, 0.00, 0.00, 0.00, 0.00, 0.00, 0.00
1081, -159.35, -46.49, 0.00, 0.00, 0.00, 0.00, 0.00, 0.00, 0.00
1082, -155.95, -37.89, 0.00, 0.00, 0.00, 0.00, 0.00, 0.00, 0.00
1083, -152.35, -46.67, 0.00, 0.00, 0.00, 0.00, 0.00, 0.00, 0.00
1084, -156.22, -38.94, 0.00, 0.00, 0.00, 0.00, 0.00, 0.00, 0.00
1085, -151.63, -44.30, 0.00, 0.00, 0.00, 0.00, 0.00, 0.00, 0.00
1086, -154.34, -43.65, 0.00, 0.00, 0.00, 0.00, 0.00, 0.00, 0.00
1087, -155.77, -39.18, 0.00, 0.00, 0.00, 0.00, 0.00, 0.00, 0.00
1088, -153.87, -44.93, 0.00, 0.00, 0.00, 0.00, 0.00, 0.00, 0.00
1089, -157.51, -41.93, 0.00, 0.00, 0.00, 0.00, 0.00, 0.00, 0.00
1090, -157.22, -43.97, 0.00, 0.00, 0.00, 0.00, 0.00, 0.00, 0.00
1091, -158.16, -43.32, 0.00, 0.00, 0.00, 0.00, 0.00, 0.00, 0.00
1092, -161.45, -42.67, 0.00, 0.00, 0.00, 0.00, 0.00, 0.00, 0.00
1093, -160.35, -47.25, 0.00, 0.00, 0.00, 0.00, 0.00, 0.00, 0.00
1094, -162.79, -44.82, 0.00, 0.00, 0.00, 0.00, 0.00, 0.00, 0.00
1095, -161.45, -44.39, 0.00, 0.00, 0.00, 0.00, 0.00, 0.00, 0.00
1096, -164.82, -46.27, 0.00, 0.00, 0.00, 0.00, 0.00, 0.00, 0.00
1097, -165.69, -37.89, 0.00, 0.00, 0.00, 0.00, 0.00, 0.00, 0.00
1098, -163.46, -36.63, 0.00, 0.00, 0.00, 0.00, 0.00, 0.00, 0.00
1099, -167.21, -41.89, 0.00, 0.00, 0.00, 0.00, 0.00, 0.00, 0.00
1100, -171.71, -47.52, 0.00, 0.00, 0.00, 0.00, 0.00, 0.00, 0.00
1101, -166.30, -42.51, 0.00, 0.00, 0.00, 0.00, 0.00, 0.00, 0.00
1102, -167.21, -46.38, 0.00, 0.00, 0.00, 0.00, 0.00, 0.00, 0.00
1103, -166.70, -43.99, 0.00, 0.00, 0.00, 0.00, 0.00, 0.00, 0.00
1104, -165.07, -44.61, 0.00, 0.00, 0.00, 0.00, 0.00, 0.00, 0.00
1105, -163.06, -41.08, 0.00, 0.00, 0.00, 0.00, 0.00, 0.00, 0.00
1106, -161.22, -37.01, 0.00, 0.00, 0.00, 0.00, 0.00, 0.00, 0.00
1107, -163.57, -47.14, 0.00, 0.00, 0.00, 0.00, 0.00, 0.00, 0.00
1108, -162.52, -42.02, 0.00, 0.00, 0.00, 0.00, 0.00, 0.00, 0.00
1109, -160.37, -43.21, 0.00, 0.00, 0.00, 0.00, 0.00, 0.00, 0.00
1110, -160.91, -45.69, 0.00, 0.00, 0.00, 0.00, 0.00, 0.00, 0.00
1111, -161.80, -44.39, 0.00, 0.00, 0.00, 0.00, 0.00, 0.00, 0.00
1112, -166.39, -48.46, 0.00, 0.00, 0.00, 0.00, 0.00, 0.00, 0.00
1113, -167.44, -36.39, 0.00, 0.00, 0.00, 0.00, 0.00, 0.00, 0.00
1114, -167.53, -46.09, 0.00, 0.00, 0.00, 0.00, 0.00, 0.00, 0.00
1115, -169.67, -46.31, 0.00, 0.00, 0.00, 0.00, 0.00, 0.00, 0.00
1116, -166.16, -34.98, 0.00, 0.00, 0.00, 0.00, 0.00, 0.00, 0.00
1117, -163.37, -49.64, 0.00, 0.00, 0.00, 0.00, 0.00, 0.00, 0.00
1118, -163.19, -44.03, 0.00, 0.00, 0.00, 0.00, 0.00, 0.00, 0.00
1119, -164.20, -42.60, 0.00, 0.00, 0.00, 0.00, 0.00, 0.00, 0.00
1120, -165.38, -44.93, 0.00, 0.00, 0.00, 0.00, 0.00, 0.00, 0.00
1121, -166.45, -37.01, 0.00, 0.00, 0.00, 0.00, 0.00, 0.00, 0.00
1122, -168.60, -49.42, 0.00, 0.00, 0.00, 0.00, 0.00, 0.00, 0.00
1123, -167.50, -36.14, 0.00, 0.00, 0.00, 0.00, 0.00, 0.00, 0.00
1124, -168.87, -41.37, 0.00, 0.00, 0.00, 0.00, 0.00, 0.00, 0.00
1125, -166.14, -47.65, 0.00, 0.00, 0.00, 0.00, 0.00, 0.00, 0.00
1126, -168.26, -37.77, 0.00, 0.00, 0.00, 0.00, 0.00, 0.00, 0.00
1127, -163.88, -42.20, 0.00, 0.00, 0.00, 0.00, 0.00, 0.00, 0.00
1128, -164.67, -37.64, 0.00, 0.00, 0.00, 0.00, 0.00, 0.00, 0.00
1129, -167.17, -40.77, 0.00, 0.00, 0.00, 0.00, 0.00, 0.00, 0.00
1130, -164.64, -46.78, 0.00, 0.00, 0.00, 0.00, 0.00, 0.00, 0.00
1131, -169.05, -39.45, 0.00, 0.00, 0.00, 0.00, 0.00, 0.00, 0.00
1132, -168.35, -49.11, 0.00, 0.00, 0.00, 0.00, 0.00, 0.00, 0.00
1133, -169.90, -41.86, 0.00, 0.00, 0.00, 0.00, 0.00, 0.00, 0.00
1134, -171.57, -35.52, 0.00, 0.00, 0.00, 0.00, 0.00, 0.00, 0.00
1135, -170.16, -43.34, 0.00, 0.00, 0.00, 0.00, 0.00, 0.00, 0.00
1136, -172.29, -33.39, 0.00, 0.00, 0.00, 0.00, 0.00, 0.00, 0.00
1137, -167.88, -37.44, 0.00, 0.00, 0.00, 0.00, 0.00, 0.00, 0.00
1138, -167.50, -33.35, 0.00, 0.00, 0.00, 0.00, 0.00, 0.00, 0.00
1139, -168.78, -34.56, 0.00, 0.00, 0.00, 0.00, 0.00, 0.00, 0.00
1140, -165.34, -40.28, 0.00, 0.00, 0.00, 0.00, 0.00, 0.00, 0.00
1141, -169.87, -31.92, 0.00, 0.00, 0.00, 0.00, 0.00, 0.00, 0.00
1142, -170.05, -38.89, 0.00, 0.00, 0.00, 0.00, 0.00, 0.00, 0.00
1143, -169.94, -39.83, 0.00, 0.00, 0.00, 0.00, 0.00, 0.00, 0.00
1144, -172.82, -32.21, 0.00, 0.00, 0.00, 0.00, 0.00, 0.00, 0.00
1145, -168.31, -36.81, 0.00, 0.00, 0.00, 0.00, 0.00, 0.00, 0.00
1146, -172.44, -27.47, 0.00, 0.00, 0.00, 0.00, 0.00, 0.00, 0.00
1147, -172.11, -35.47, 0.00, 0.00, 0.00, 0.00, 0.00, 0.00, 0.00
1148, -173.05, -40.46, 0.00, 0.00, 0.00, 0.00, 0.00, 0.00, 0.00
1149, -175.57, -29.46, 0.00, 0.00, 0.00, 0.00, 0.00, 0.00, 0.00
1150, -170.95, -35.61, 0.00, 0.00, 0.00, 0.00, 0.00, 0.00, 0.00
1151, -174.03, -32.72, 0.00, 0.00, 0.00, 0.00, 0.00, 0.00, 0.00
1152, -173.14, -35.94, 0.00, 0.00, 0.00, 0.00, 0.00, 0.00, 0.00
1153, -170.34, -34.82, 0.00, 0.00, 0.00, 0.00, 0.00, 0.00, 0.00
1154, -172.76, -34.89, 0.00, 0.00, 0.00, 0.00, 0.00, 0.00, 0.00
1155, -169.49, -40.32, 0.00, 0.00, 0.00, 0.00, 0.00, 0.00, 0.00
1156, -170.61, -33.08, 0.00, 0.00, 0.00, 0.00, 0.00, 0.00, 0.00
1157, -168.96, -33.66, 0.00, 0.00, 0.00, 0.00, 0.00, 0.00, 0.00
1158, -169.52, -32.77, 0.00, 0.00, 0.00, 0.00, 0.00, 0.00, 0.00
1159, -173.74, -31.14, 0.00, 0.00, 0.00, 0.00, 0.00, 0.00, 0.00
1160, -173.92, -36.61, 0.00, 0.00, 0.00, 0.00, 0.00, 0.00, 0.00
1161, -178.81, -36.30, 0.00, 0.00, 0.00, 0.00, 0.00, 0.00, 0.00
1162, -177.03, -36.84, 0.00, 0.00, 0.00, 0.00, 0.00, 0.00, 0.00
1163, -176.09, -36.43, 0.00, 0.00, 0.00, 0.00, 0.00, 0.00, 0.00
1164, -176.51, -34.76, 0.00, 0.00, 0.00, 0.00, 0.00, 0.00, 0.00
1165, -174.41, -36.23, 0.00, 0.00, 0.00, 0.00, 0.00, 0.00, 0.00
1166, -177.83, -33.57, 0.00, 0.00, 0.00, 0.00, 0.00, 0.00, 0.00
1167, -180.71, -38.02, 0.00, 0.00, 0.00, 0.00, 0.00, 0.00, 0.00
1168, -178.81, -38.04, 0.00, 0.00, 0.00, 0.00, 0.00, 0.00, 0.00
1169, -180.69, -37.84, 0.00, 0.00, 0.00, 0.00, 0.00, 0.00, 0.00
1170, -178.95, -38.11, 0.00, 0.00, 0.00, 0.00, 0.00, 0.00, 0.00
1171, -177.03, -32.59, 0.00, 0.00, 0.00, 0.00, 0.00, 0.00, 0.00
1172, -175.62, -36.21, 0.00, 0.00, 0.00, 0.00, 0.00, 0.00, 0.00
1173, -174.72, -33.46, 0.00, 0.00, 0.00, 0.00, 0.00, 0.00, 0.00
1174, -178.30, -40.05, 0.00, 0.00, 0.00, 0.00, 0.00, 0.00, 0.00
1175, -176.96, -38.24, 0.00, 0.00, 0.00, 0.00, 0.00, 0.00, 0.00
1176, -175.35, -31.74, 0.00, 0.00, 0.00, 0.00, 0.00, 0.00, 0.00
1177, -176.76, -36.03, 0.00, 0.00, 0.00, 0.00, 0.00, 0.00, 0.00
1178, -176.65, -36.34, 0.00, 0.00, 0.00, 0.00, 0.00, 0.00, 0.00
1179, -176.76, -36.25, 0.00, 0.00, 0.00, 0.00, 0.00, 0.00, 0.00
1180, -175.62, -36.59, 0.00, 0.00, 0.00, 0.00, 0.00, 0.00, 0.00
1181, -177.99, -37.24, 0.00, 0.00, 0.00, 0.00, 0.00, 0.00, 0.00
1182, -178.52, -43.72, 0.00, 0.00, 0.00, 0.00, 0.00, 0.00, 0.00
1183, -175.35, -34.65, 0.00, 0.00, 0.00, 0.00, 0.00, 0.00, 0.00
1184, -177.20, -37.26, 0.00, 0.00, 0.00, 0.00, 0.00, 0.00, 0.00
1185, -175.51, -37.08, 0.00, 0.00, 0.00, 0.00, 0.00, 0.00, 0.00
1186, -176.27, -29.97, 0.00, 0.00, 0.00, 0.00, 0.00, 0.00, 0.00
1187, -176.74, -39.20, 0.00, 0.00, 0.00, 0.00, 0.00, 0.00, 0.00
1188, -176.06, -37.13, 0.00, 0.00, 0.00, 0.00, 0.00, 0.00, 0.00
1189, -180.85, -44.64, 0.00, 0.00, 0.00, 0.00, 0.00, 0.00, 0.00
1190, -187.17, -54.02, 0.00, 0.00, 0.00, 0.00, 0.00, 0.00, 0.00
1191, -193.39, -53.29, 0.00, 0.00, 0.00, 0.00, 0.00, 0.00, 0.00
1192, -193.48, -56.64, 0.00, 0.00, 0.00, 0.00, 0.00, 0.00, 0.00
1193, -201.64, -51.10, 0.00, 0.00, 0.00, 0.00, 0.00, 0.00, 0.00
1194, -199.00, -54.85, 0.00, 0.00, 0.00, 0.00, 0.00, 0.00, 0.00
1195, -196.78, -55.48, 0.00, 0.00, 0.00, 0.00, 0.00, 0.00, 0.00
1196, -197.25, -53.62, 0.00, 0.00, 0.00, 0.00, 0.00, 0.00, 0.00
1197, -195.53, -65.29, 0.00, 0.00, 0.00, 0.00, 0.00, 0.00, 0.00
1198, -200.34, -52.79, 0.00, 0.00, 0.00, 0.00, 0.00, 0.00, 0.00
1199, -201.39, -52.79, 0.00, 0.00, 0.00, 0.00, 0.00, 0.00, 0.00
1200, -202.02, -59.95, 0.00, 0.00, 0.00, 0.00, 0.00, 0.00, 0.00
1201, -204.09, -50.27, 0.00, 0.00, 0.00, 0.00, 0.00, 0.00, 0.00
1202, -202.40, -66.23, 0.00, 0.00, 0.00, 0.00, 0.00, 0.00, 0.00
1203, -205.93, -56.66, 0.00, 0.00, 0.00, 0.00, 0.00, 0.00, 0.00
1204, -205.21, -54.94, 0.00, 0.00, 0.00, 0.00, 0.00, 0.00, 0.00
1205, -200.63, -57.02, 0.00, 0.00, 0.00, 0.00, 0.00, 0.00, 0.00
1206, -205.01, -51.54, 0.00, 0.00, 0.00, 0.00, 0.00, 0.00, 0.00
1207, -203.87, -60.22, 0.00, 0.00, 0.00, 0.00, 0.00, 0.00, 0.00
1208, -205.68, -51.68, 0.00, 0.00, 0.00, 0.00, 0.00, 0.00, 0.00
1209, -204.25, -56.28, 0.00, 0.00, 0.00, 0.00, 0.00, 0.00, 0.00
1210, -202.80, -56.62, 0.00, 0.00, 0.00, 0.00, 0.00, 0.00, 0.00
1211, -209.66, -46.98, 0.00, 0.00, 0.00, 0.00, 0.00, 0.00, 0.00
1212, -204.83, -58.94, 0.00, 0.00, 0.00, 0.00, 0.00, 0.00, 0.00
1213, -205.68, -53.13, 0.00, 0.00, 0.00, 0.00, 0.00, 0.00, 0.00
1214, -207.02, -58.38, 0.00, 0.00, 0.00, 0.00, 0.00, 0.00, 0.00
1215, -206.75, -60.28, 0.00, 0.00, 0.00, 0.00, 0.00, 0.00, 0.00
1216, -208.14, -49.22, 0.00, 0.00, 0.00, 0.00, 0.00, 0.00, 0.00
1217, -204.43, -58.03, 0.00, 0.00, 0.00, 0.00, 0.00, 0.00, 0.00
1218, -208.16, -52.30, 0.00, 0.00, 0.00, 0.00, 0.00, 0.00, 0.00
1219, -206.37, -58.38, 0.00, 0.00, 0.00, 0.00, 0.00, 0.00, 0.00
1220, -204.54, -61.53, 0.00, 0.00, 0.00, 0.00, 0.00, 0.00, 0.00
1221, -208.54, -51.72, 0.00, 0.00, 0.00, 0.00, 0.00, 0.00, 0.00
1222, -204.83, -57.24, 0.00, 0.00, 0.00, 0.00, 0.00, 0.00, 0.00
1223, -207.78, -47.01, 0.00, 0.00, 0.00, 0.00, 0.00, 0.00, 0.00
1224, -208.68, -57.49, 0.00, 0.00, 0.00, 0.00, 0.00, 0.00, 0.00
1225, -208.72, -62.85, 0.00, 0.00, 0.00, 0.00, 0.00, 0.00, 0.00
1226, -211.09, -51.92, 0.00, 0.00, 0.00, 0.00, 0.00, 0.00, 0.00
1227, -205.10, -57.76, 0.00, 0.00, 0.00, 0.00, 0.00, 0.00, 0.00
1228, -208.56, -55.25, 0.00, 0.00, 0.00, 0.00, 0.00, 0.00, 0.00
1229, -208.43, -54.94, 0.00, 0.00, 0.00, 0.00, 0.00, 0.00, 0.00
1230, -208.45, -56.37, 0.00, 0.00, 0.00, 0.00, 0.00, 0.00, 0.00
1231, -213.19, -51.27, 0.00, 0.00, 0.00, 0.00, 0.00, 0.00, 0.00
1232, -209.23, -58.70, 0.00, 0.00, 0.00, 0.00, 0.00, 0.00, 0.00
1233, -211.13, -49.62, 0.00, 0.00, 0.00, 0.00, 0.00, 0.00, 0.00
1234, -208.97, -47.72, 0.00, 0.00, 0.00, 0.00, 0.00, 0.00, 0.00
1235, -206.15, -48.41, 0.00, 0.00, 0.00, 0.00, 0.00, 0.00, 0.00
1236, -210.35, -39.85, 0.00, 0.00, 0.00, 0.00, 0.00, 0.00, 0.00
1237, -206.35, -50.98, 0.00, 0.00, 0.00, 0.00, 0.00, 0.00, 0.00
1238, -209.37, -44.75, 0.00, 0.00, 0.00, 0.00, 0.00, 0.00, 0.00
1239, -209.57, -46.09, 0.00, 0.00, 0.00, 0.00, 0.00, 0.00, 0.00
1240, -205.73, -54.54, 0.00, 0.00, 0.00, 0.00, 0.00, 0.00, 0.00
1241, -209.97, -52.55, 0.00, 0.00, 0.00, 0.00, 0.00, 0.00, 0.00
1242, -203.36, -59.66, 0.00, 0.00, 0.00, 0.00, 0.00, 0.00, 0.00
1243, -206.95, -48.17, 0.00, 0.00, 0.00, 0.00, 0.00, 0.00, 0.00
1244, -206.15, -47.45, 0.00, 0.00, 0.00, 0.00, 0.00, 0.00, 0.00
1245, -203.80, -57.73, 0.00, 0.00, 0.00, 0.00, 0.00, 0.00, 0.00
1246, -209.64, -43.45, 0.00, 0.00, 0.00, 0.00, 0.00, 0.00, 0.00
1247, -206.84, -53.11, 0.00, 0.00, 0.00, 0.00, 0.00, 0.00, 0.00
1248, -210.20, -51.50, 0.00, 0.00, 0.00, 0.00, 0.00, 0.00, 0.00
1249, -209.28, -53.24, 0.00, 0.00, 0.00, 0.00, 0.00, 0.00, 0.00
1250, -207.87, -52.17, 0.00, 0.00, 0.00, 0.00, 0.00, 0.00, 0.00
1251, -214.24, -46.36, 0.00, 0.00, 0.00, 0.00, 0.00, 0.00, 0.00
1252, -209.48, -54.92, 0.00, 0.00, 0.00, 0.00, 0.00, 0.00, 0.00
1253, -214.64, -54.52, 0.00, 0.00, 0.00, 0.00, 0.00, 0.00, 0.00
1254, -210.13, -47.77, 0.00, 0.00, 0.00, 0.00, 0.00, 0.00, 0.00
1255, -209.23, -50.74, 0.00, 0.00, 0.00, 0.00, 0.00, 0.00, 0.00
1256, -213.93, -42.78, 0.00, 0.00, 0.00, 0.00, 0.00, 0.00, 0.00
1257, -207.38, -53.17, 0.00, 0.00, 0.00, 0.00, 0.00, 0.00, 0.00
1258, -211.51, -48.84, 0.00, 0.00, 0.00, 0.00, 0.00, 0.00, 0.00
1259, -211.78, -51.43, 0.00, 0.00, 0.00, 0.00, 0.00, 0.00, 0.00
1260, -209.19, -58.56, 0.00, 0.00, 0.00, 0.00, 0.00, 0.00, 0.00
1261, -209.28, -42.85, 0.00, 0.00, 0.00, 0.00, 0.00, 0.00, 0.00
1262, -204.43, -45.84, 0.00, 0.00, 0.00, 0.00, 0.00, 0.00, 0.00
1263, -209.59, -41.35, 0.00, 0.00, 0.00, 0.00, 0.00, 0.00, 0.00
1264, -208.77, -43.36, 0.00, 0.00, 0.00, 0.00, 0.00, 0.00, 0.00
1265, -207.85, -52.06, 0.00, 0.00, 0.00, 0.00, 0.00, 0.00, 0.00
1266, -211.69, -38.69, 0.00, 0.00, 0.00, 0.00, 0.00, 0.00, 0.00
1267, -205.55, -44.73, 0.00, 0.00, 0.00, 0.00, 0.00, 0.00, 0.00
1268, -205.79, -41.93, 0.00, 0.00, 0.00, 0.00, 0.00, 0.00, 0.00
1269, -206.22, -38.09, 0.00, 0.00, 0.00, 0.00, 0.00, 0.00, 0.00
1270, -202.91, -45.89, 0.00, 0.00, 0.00, 0.00, 0.00, 0.00, 0.00
1271, -206.91, -38.36, 0.00, 0.00, 0.00, 0.00, 0.00, 0.00, 0.00
1272, -202.40, -44.46, 0.00, 0.00, 0.00, 0.00, 0.00, 0.00, 0.00
1273, -205.19, -44.44, 0.00, 0.00, 0.00, 0.00, 0.00, 0.00, 0.00
1274, -206.33, -35.52, 0.00, 0.00, 0.00, 0.00, 0.00, 0.00, 0.00
1275, -200.07, -42.27, 0.00, 0.00, 0.00, 0.00, 0.00, 0.00, 0.00
1276, -206.60, -36.32, 0.00, 0.00, 0.00, 0.00, 0.00, 0.00, 0.00
1277, -205.26, -42.71, 0.00, 0.00, 0.00, 0.00, 0.00, 0.00, 0.00
1278, -206.73, -46.45, 0.00, 0.00, 0.00, 0.00, 0.00, 0.00, 0.00
1279, -208.94, -36.10, 0.00, 0.00, 0.00, 0.00, 0.00, 0.00, 0.00
1280, -205.14, -44.41, 0.00, 0.00, 0.00, 0.00, 0.00, 0.00, 0.00
1281, -210.55, -42.11, 0.00, 0.00, 0.00, 0.00, 0.00, 0.00, 0.00
1282, -208.12, -40.75, 0.00, 0.00, 0.00, 0.00, 0.00, 0.00, 0.00
1283, -207.98, -46.34, 0.00, 0.00, 0.00, 0.00, 0.00, 0.00, 0.00
1284, -209.35, -37.60, 0.00, 0.00, 0.00, 0.00, 0.00, 0.00, 0.00
1285, -205.26, -41.95, 0.00, 0.00, 0.00, 0.00, 0.00, 0.00, 0.00
1286, -209.50, -42.78, 0.00, 0.00, 0.00, 0.00, 0.00, 0.00, 0.00
1287, -207.85, -37.24, 0.00, 0.00, 0.00, 0.00, 0.00, 0.00, 0.00
1288, -212.48, -42.71, 0.00, 0.00, 0.00, 0.00, 0.00, 0.00, 0.00
1289, -215.56, -32.97, 0.00, 0.00, 0.00, 0.00, 0.00, 0.00, 0.00
1290, -206.04, -28.79, 0.00, 0.00, 0.00, 0.00, 0.00, 0.00, 0.00
1291, -199.98, -28.27, 0.00, 0.00, 0.00, 0.00, 0.00, 0.00, 0.00
1292, -189.16, -15.74, 0.00, 0.00, 0.00, 0.00, 0.00, 0.00, 0.00
1293, -178.05, -11.60, 0.00, 0.00, 0.00, 0.00, 0.00, 0.00, 0.00
1294, -174.16, -8.09, 0.00, 0.00, 0.00, 0.00, 0.00, 0.00, 0.00
1295, -164.69, -2.41, 0.00, 0.00, 0.00, 0.00, 0.00, 0.00, 0.00
1296, -160.78, 2.86, 0.00, 0.00, 0.00, 0.00, 0.00, 0.00, 0.00
1297, -153.76, 12.36, 0.00, 0.00, 0.00, 0.00, 0.00, 0.00, 0.00
1298, -144.53, 15.22, 0.00, 0.00, 0.00, 0.00, 0.00, 0.00, 0.00
1299, -144.41, 15.02, 0.00, 0.00, 0.00, 0.00, 0.00, 0.00, 0.00
1300, -143.36, 17.03, 0.00, 0.00, 0.00, 0.00, 0.00, 0.00, 0.00
1301, -147.59, 13.41, 0.00, 0.00, 0.00, 0.00, 0.00, 0.00, 0.00
1302, -147.03, 22.33, 0.00, 0.00, 0.00, 0.00, 0.00, 0.00, 0.00
1303, -146.14, 17.57, 0.00, 0.00, 0.00, 0.00, 0.00, 0.00, 0.00
1304, -149.24, 13.32, 0.00, 0.00, 0.00, 0.00, 0.00, 0.00, 0.00
1305, -148.75, 17.23, 0.00, 0.00, 0.00, 0.00, 0.00, 0.00, 0.00
1306, -149.94, 7.73, 0.00, 0.00, 0.00, 0.00, 0.00, 0.00, 0.00
1307, -154.61, 10.48, 0.00, 0.00, 0.00, 0.00, 0.00, 0.00, 0.00
1308, -155.68, 5.77, 0.00, 0.00, 0.00, 0.00, 0.00, 0.00, 0.00
1309, -152.06, 5.05, 0.00, 0.00, 0.00, 0.00, 0.00, 0.00, 0.00
1310, -152.24, 16.25, 0.00, 0.00, 0.00, 0.00, 0.00, 0.00, 0.00
1311, -151.52, 6.41, 0.00, 0.00, 0.00, 0.00, 0.00, 0.00, 0.00
1312, -152.19, 10.28, 0.00, 0.00, 0.00, 0.00, 0.00, 0.00, 0.00
1313, -151.97, 9.88, 0.00, 0.00, 0.00, 0.00, 0.00, 0.00, 0.00
1314, -149.58, 3.22, 0.00, 0.00, 0.00, 0.00, 0.00, 0.00, 0.00
1315, -152.57, 14.93, 0.00, 0.00, 0.00, 0.00, 0.00, 0.00, 0.00
1316, -155.08, 3.26, 0.00, 0.00, 0.00, 0.00, 0.00, 0.00, 0.00
1317, -155.46, 4.83, 0.00, 0.00, 0.00, 0.00, 0.00, 0.00, 0.00
1318, -159.03, 9.19, 0.00, 0.00, 0.00, 0.00, 0.00, 0.00, 0.00
1319, -156.98, -2.37, 0.00, 0.00, 0.00, 0.00, 0.00, 0.00, 0.00
1320, -157.71, 12.38, 0.00, 0.00, 0.00, 0.00, 0.00, 0.00, 0.00
1321, -154.70, 5.79, 0.00, 0.00, 0.00, 0.00, 0.00, 0.00, 0.00
1322, -154.79, 6.68, 0.00, 0.00, 0.00, 0.00, 0.00, 0.00, 0.00
1323, -156.69, 12.90, 0.00, 0.00, 0.00, 0.00, 0.00, 0.00, 0.00
1324, -152.75, 0.65, 0.00, 0.00, 0.00, 0.00, 0.00, 0.00, 0.00
1325, -158.34, 10.86, 0.00, 0.00, 0.00, 0.00, 0.00, 0.00, 0.00
1326, -157.98, 4.94, 0.00, 0.00, 0.00, 0.00, 0.00, 0.00, 0.00
1327, -156.71, 2.12, 0.00, 0.00, 0.00, 0.00, 0.00, 0.00, 0.00
1328, -160.89, 13.61, 0.00, 0.00, 0.00, 0.00, 0.00, 0.00, 0.00
1329, -158.30, -0.38, 0.00, 0.00, 0.00, 0.00, 0.00, 0.00, 0.00
1330, -162.39, 12.52, 0.00, 0.00, 0.00, 0.00, 0.00, 0.00, 0.00
1331, -161.33, 8.20, 0.00, 0.00, 0.00, 0.00, 0.00, 0.00, 0.00
1332, -157.47, 3.51, 0.00, 0.00, 0.00, 0.00, 0.00, 0.00, 0.00
1333, -161.42, 13.25, 0.00, 0.00, 0.00, 0.00, 0.00, 0.00, 0.00
1334, -159.70, -2.03, 0.00, 0.00, 0.00, 0.00, 0.00, 0.00, 0.00
1335, -165.49, 4.14, 0.00, 0.00, 0.00, 0.00, 0.00, 0.00, 0.00
1336, -165.34, 1.27, 0.00, 0.00, 0.00, 0.00, 0.00, 0.00, 0.00
1337, -164.17, -2.08, 0.00, 0.00, 0.00, 0.00, 0.00, 0.00, 0.00
1338, -169.27, 11.11, 0.00, 0.00, 0.00, 0.00, 0.00, 0.00, 0.00
1339, -165.18, -1.90, 0.00, 0.00, 0.00, 0.00, 0.00, 0.00, 0.00
1340, -165.87, 6.48, 0.00, 0.00, 0.00, 0.00, 0.00, 0.00, 0.00
1341, -167.88, 11.91, 0.00, 0.00, 0.00, 0.00, 0.00, 0.00, 0.00
1342, -166.54, -1.14, 0.00, 0.00, 0.00, 0.00, 0.00, 0.00, 0.00
1343, -172.00, 11.65, 0.00, 0.00, 0.00, 0.00, 0.00, 0.00, 0.00
1344, -166.07, 3.06, 0.00, 0.00, 0.00, 0.00, 0.00, 0.00, 0.00
1345, -166.16, 1.86, 0.00, 0.00, 0.00, 0.00, 0.00, 0.00, 0.00
1346, -166.07, 11.18, 0.00, 0.00, 0.00, 0.00, 0.00, 0.00, 0.00
1347, -161.18, 2.59, 0.00, 0.00, 0.00, 0.00, 0.00, 0.00, 0.00
1348, -170.79, 11.13, 0.00, 0.00, 0.00, 0.00, 0.00, 0.00, 0.00
1349, -168.22, 2.12, 0.00, 0.00, 0.00, 0.00, 0.00, 0.00, 0.00
1350, -169.54, -2.26, 0.00, 0.00, 0.00, 0.00, 0.00, 0.00, 0.00
1351, -175.28, 7.78, 0.00, 0.00, 0.00, 0.00, 0.00, 0.00, 0.00
1352, -171.95, -10.93, 0.00, 0.00, 0.00, 0.00, 0.00, 0.00, 0.00
1353, -176.53, 3.00, 0.00, 0.00, 0.00, 0.00, 0.00, 0.00, 0.00
1354, -174.23, 3.84, 0.00, 0.00, 0.00, 0.00, 0.00, 0.00, 0.00
1355, -174.77, -8.74, 0.00, 0.00, 0.00, 0.00, 0.00, 0.00, 0.00
1356, -177.25, 2.08, 0.00, 0.00, 0.00, 0.00, 0.00, 0.00, 0.00
1357, -170.19, -5.90, 0.00, 0.00, 0.00, 0.00, 0.00, 0.00, 0.00
1358, -173.70, 2.17, 0.00, 0.00, 0.00, 0.00, 0.00, 0.00, 0.00
1359, -172.42, 0.67, 0.00, 0.00, 0.00, 0.00, 0.00, 0.00, 0.00
1360, -170.41, -8.47, 0.00, 0.00, 0.00, 0.00, 0.00, 0.00, 0.00
1361, -175.86, 7.02, 0.00, 0.00, 0.00, 0.00, 0.00, 0.00, 0.00
1362, -169.96, 5.28, 0.00, 0.00, 0.00, 0.00, 0.00, 0.00, 0.00
1363, -172.64, 4.43, 0.00, 0.00, 0.00, 0.00, 0.00, 0.00, 0.00
1364, -173.00, 7.98, 0.00, 0.00, 0.00, 0.00, 0.00, 0.00, 0.00
1365, -171.01, -8.90, 0.00, 0.00, 0.00, 0.00, 0.00, 0.00, 0.00
1366, -175.84, 4.94, 0.00, 0.00, 0.00, 0.00, 0.00, 0.00, 0.00
1367, -167.82, -5.01, 0.00, 0.00, 0.00, 0.00, 0.00, 0.00, 0.00
1368, -173.52, -22.64, 0.00, 0.00, 0.00, 0.00, 0.00, 0.00, 0.00
1369, -173.16, 6.10, 0.00, 0.00, 0.00, 0.00, 0.00, 0.00, 0.00
1370, -166.41, -0.25, 0.00, 0.00, 0.00, 0.00, 0.00, 0.00, 0.00
1371, -176.40, 2.73, 0.00, 0.00, 0.00, 0.00, 0.00, 0.00, 0.00
1372, -174.88, -6.39, 0.00, 0.00, 0.00, 0.00, 0.00, 0.00, 0.00
1373, -177.38, -8.07, 0.00, 0.00, 0.00, 0.00, 0.00, 0.00, 0.00
1374, -181.43, 3.26, 0.00, 0.00, 0.00, 0.00, 0.00, 0.00, 0.00
1375, -179.13, -15.65, 0.00, 0.00, 0.00, 0.00, 0.00, 0.00, 0.00
1376, -182.79, -10.21, 0.00, 0.00, 0.00, 0.00, 0.00, 0.00, 0.00
1377, -176.96, -2.39, 0.00, 0.00, 0.00, 0.00, 0.00, 0.00, 0.00
1378, -174.61, -3.00, 0.00, 0.00, 0.00, 0.00, 0.00, 0.00, 0.00
1379, -174.25, 4.14, 0.00, 0.00, 0.00, 0.00, 0.00, 0.00, 0.00
1380, -171.77, -11.78, 0.00, 0.00, 0.00, 0.00, 0.00, 0.00, 0.00
1381, -175.57, -6.59, 0.00, 0.00, 0.00, 0.00, 0.00, 0.00, 0.00
1382, -174.14, -0.85, 0.00, 0.00, 0.00, 0.00, 0.00, 0.00, 0.00
1383, -175.84, -15.94, 0.00, 0.00, 0.00, 0.00, 0.00, 0.00, 0.00
1384, -177.83, 1.18, 0.00, 0.00, 0.00, 0.00, 0.00, 0.00, 0.00
1385, -171.50, -1.14, 0.00, 0.00, 0.00, 0.00, 0.00, 0.00, 0.00
1386, -174.21, -6.53, 0.00, 0.00, 0.00, 0.00, 0.00, 0.00, 0.00
1387, -172.71, 7.53, 0.00, 0.00, 0.00, 0.00, 0.00, 0.00, 0.00
1388, -171.26, -8.40, 0.00, 0.00, 0.00, 0.00, 0.00, 0.00, 0.00
1389, -173.96, 0.74, 0.00, 0.00, 0.00, 0.00, 0.00, 0.00, 0.00
1390, -171.91, -1.54, 0.00, 0.00, 0.00, 0.00, 0.00, 0.00, 0.00
1391, -174.05, -10.71, 0.00, 0.00, 0.00, 0.00, 0.00, 0.00, 0.00
1392, -175.22, 1.07, 0.00, 0.00, 0.00, 0.00, 0.00, 0.00, 0.00
1393, -171.62, -9.48, 0.00, 0.00, 0.00, 0.00, 0.00, 0.00, 0.00
1394, -174.05, 0.11, 0.00, 0.00, 0.00, 0.00, 0.00, 0.00, 0.00
1395, -172.38, 2.08, 0.00, 0.00, 0.00, 0.00, 0.00, 0.00, 0.00
1396, -170.43, -8.99, 0.00, 0.00, 0.00, 0.00, 0.00, 0.00, 0.00
1397, -171.64, 9.28, 0.00, 0.00, 0.00, 0.00, 0.00, 0.00, 0.00
1398, -169.16, -6.75, 0.00, 0.00, 0.00, 0.00, 0.00, 0.00, 0.00
1399, -170.14, 1.74, 0.00, 0.00, 0.00, 0.00, 0.00, 0.00, 0.00
1400, -170.23, 10.48, 0.00, 0.00, 0.00, 0.00, 0.00, 0.00, 0.00
1401, -168.82, -11.89, 0.00, 0.00, 0.00, 0.00, 0.00, 0.00, 0.00
1402, -173.14, 8.11, 0.00, 0.00, 0.00, 0.00, 0.00, 0.00, 0.00
1403, -170.88, -8.20, 0.00, 0.00, 0.00, 0.00, 0.00, 0.00, 0.00
1404, -170.79, -8.83, 0.00, 0.00, 0.00, 0.00, 0.00, 0.00, 0.00
1405, -170.03, 6.17, 0.00, 0.00, 0.00, 0.00, 0.00, 0.00, 0.00
1406, -168.96, -9.61, 0.00, 0.00, 0.00, 0.00, 0.00, 0.00, 0.00
1407, -171.86, 7.09, 0.00, 0.00, 0.00, 0.00, 0.00, 0.00, 0.00
1408, -170.83, -0.89, 0.00, 0.00, 0.00, 0.00, 0.00, 0.00, 0.00
1409, -174.16, -7.38, 0.00, 0.00, 0.00, 0.00, 0.00, 0.00, 0.00
1410, -176.60, 7.78, 0.00, 0.00, 0.00, 0.00, 0.00, 0.00, 0.00
1411, -174.61, -7.42, 0.00, 0.00, 0.00, 0.00, 0.00, 0.00, 0.00
1412, -178.23, 8.96, 0.00, 0.00, 0.00, 0.00, 0.00, 0.00, 0.00
1413, -172.35, 9.43, 0.00, 0.00, 0.00, 0.00, 0.00, 0.00, 0.00
1414, -171.91, -8.58, 0.00, 0.00, 0.00, 0.00, 0.00, 0.00, 0.00
1415, -174.95, 6.21, 0.00, 0.00, 0.00, 0.00, 0.00, 0.00, 0.00
1416, -168.29, -2.68, 0.00, 0.00, 0.00, 0.00, 0.00, 0.00, 0.00
1417, -171.93, 3.80, 0.00, 0.00, 0.00, 0.00, 0.00, 0.00, 0.00
1418, -169.09, 2.68, 0.00, 0.00, 0.00, 0.00, 0.00, 0.00, 0.00
1419, -166.70, 0.85, 0.00, 0.00, 0.00, 0.00, 0.00, 0.00, 0.00
1420, -170.21, 17.90, 0.00, 0.00, 0.00, 0.00, 0.00, 0.00, 0.00
1421, -165.89, 0.31, 0.00, 0.00, 0.00, 0.00, 0.00, 0.00, 0.00
1422, -170.74, 2.86, 0.00, 0.00, 0.00, 0.00, 0.00, 0.00, 0.00
1423, -173.78, 1.36, 0.00, 0.00, 0.00, 0.00, 0.00, 0.00, 0.00
1424, -171.80, -9.68, 0.00, 0.00, 0.00, 0.00, 0.00, 0.00, 0.00
1425, -176.65, 0.65, 0.00, 0.00, 0.00, 0.00, 0.00, 0.00, 0.00
1426, -169.23, -2.66, 0.00, 0.00, 0.00, 0.00, 0.00, 0.00, 0.00
1427, -171.17, 0.63, 0.00, 0.00, 0.00, 0.00, 0.00, 0.00, 0.00
1428, -172.98, 8.34, 0.00, 0.00, 0.00, 0.00, 0.00, 0.00, 0.00
1429, -168.49, -2.06, 0.00, 0.00, 0.00, 0.00, 0.00, 0.00, 0.00
1430, -175.84, -0.11, 0.00, 0.00, 0.00, 0.00, 0.00, 0.00, 0.00
1431, -174.08, -2.57, 0.00, 0.00, 0.00, 0.00, 0.00, 0.00, 0.00
1432, -174.14, -5.14, 0.00, 0.00, 0.00, 0.00, 0.00, 0.00, 0.00
1433, -178.32, 2.55, 0.00, 0.00, 0.00, 0.00, 0.00, 0.00, 0.00
1434, -174.66, -3.38, 0.00, 0.00, 0.00, 0.00, 0.00, 0.00, 0.00
1435, -178.55, -0.02, 0.00, 0.00, 0.00, 0.00, 0.00, 0.00, 0.00
1436, -177.85, 4.14, 0.00, 0.00, 0.00, 0.00, 0.00, 0.00, 0.00
1437, -175.75, -1.61, 0.00, 0.00, 0.00, 0.00, 0.00, 0.00, 0.00
1438, -177.32, -0.51, 0.00, 0.00, 0.00, 0.00, 0.00, 0.00, 0.00
1439, -176.11, -4.72, 0.00, 0.00, 0.00, 0.00, 0.00, 0.00, 0.00
1440, -178.37, -1.18, 0.00, 0.00, 0.00, 0.00, 0.00, 0.00, 0.00
1441, -175.48, 2.39, 0.00, 0.00, 0.00, 0.00, 0.00, 0.00, 0.00
1442, -173.56, -3.33, 0.00, 0.00, 0.00, 0.00, 0.00, 0.00, 0.00
1443, -178.64, -2.15, 0.00, 0.00, 0.00, 0.00, 0.00, 0.00, 0.00
1444, -174.50, 0.31, 0.00, 0.00, 0.00, 0.00, 0.00, 0.00, 0.00
1445, -175.62, -1.56, 0.00, 0.00, 0.00, 0.00, 0.00, 0.00, 0.00
1446, -179.57, -2.15, 0.00, 0.00, 0.00, 0.00, 0.00, 0.00, 0.00
1447, -180.78, -6.03, 0.00, 0.00, 0.00, 0.00, 0.00, 0.00, 0.00
1448, -183.51, -5.83, 0.00, 0.00, 0.00, 0.00, 0.00, 0.00, 0.00
1449, -179.93, -2.08, 0.00, 0.00, 0.00, 0.00, 0.00, 0.00, 0.00
1450, -181.47, -13.03, 0.00, 0.00, 0.00, 0.00, 0.00, 0.00, 0.00
1451, -187.06, -3.17, 0.00, 0.00, 0.00, 0.00, 0.00, 0.00, 0.00
1452, -180.18, -11.91, 0.00, 0.00, 0.00, 0.00, 0.00, 0.00, 0.00
1453, -184.31, -10.95, 0.00, 0.00, 0.00, 0.00, 0.00, 0.00, 0.00
1454, -184.42, -4.81, 0.00, 0.00, 0.00, 0.00, 0.00, 0.00, 0.00
1455, -183.22, -10.59, 0.00, 0.00, 0.00, 0.00, 0.00, 0.00, 0.00
1456, -184.78, -4.47, 0.00, 0.00, 0.00, 0.00, 0.00, 0.00, 0.00
1457, -183.95, -5.59, 0.00, 0.00, 0.00, 0.00, 0.00, 0.00, 0.00
1458, -180.38, -16.79, 0.00, 0.00, 0.00, 0.00, 0.00, 0.00, 0.00
1459, -182.46, -7.80, 0.00, 0.00, 0.00, 0.00, 0.00, 0.00, 0.00
1460, -180.20, -15.74, 0.00, 0.00, 0.00, 0.00, 0.00, 0.00, 0.00
1461, -179.82, -15.00, 0.00, 0.00, 0.00, 0.00, 0.00, 0.00, 0.00
1462, -181.94, -4.98, 0.00, 0.00, 0.00, 0.00, 0.00, 0.00, 0.00
1463, -183.51, -11.35, 0.00, 0.00, 0.00, 0.00, 0.00, 0.00, 0.00
1464, -182.73, -4.29, 0.00, 0.00, 0.00, 0.00, 0.00, 0.00, 0.00
1465, -182.48, -17.32, 0.00, 0.00, 0.00, 0.00, 0.00, 0.00, 0.00
1466, -181.16, -13.86, 0.00, 0.00, 0.00, 0.00, 0.00, 0.00, 0.00
1467, -180.33, -1.83, 0.00, 0.00, 0.00, 0.00, 0.00, 0.00, 0.00
1468, -180.80, -15.42, 0.00, 0.00, 0.00, 0.00, 0.00, 0.00, 0.00
1469, -180.78, -4.34, 0.00, 0.00, 0.00, 0.00, 0.00, 0.00, 0.00
1470, -180.24, -10.26, 0.00, 0.00, 0.00, 0.00, 0.00, 0.00, 0.00
1471, -181.03, -12.72, 0.00, 0.00, 0.00, 0.00, 0.00, 0.00, 0.00
1472, -183.60, -7.38, 0.00, 0.00, 0.00, 0.00, 0.00, 0.00, 0.00
1473, -185.01, -22.84, 0.00, 0.00, 0.00, 0.00, 0.00, 0.00, 0.00
1474, -187.80, -9.14, 0.00, 0.00, 0.00, 0.00, 0.00, 0.00, 0.00
1475, -187.22, -18.62, 0.00, 0.00, 0.00, 0.00, 0.00, 0.00, 0.00
1476, -186.77, -19.98, 0.00, 0.00, 0.00, 0.00, 0.00, 0.00, 0.00
1477, -194.10, -4.76, 0.00, 0.00, 0.00, 0.00, 0.00, 0.00, 0.00
1478, -191.22, -24.56, 0.00, 0.00, 0.00, 0.00, 0.00, 0.00, 0.00
1479, -189.59, -13.48, 0.00, 0.00, 0.00, 0.00, 0.00, 0.00, 0.00
1480, -196.16, -16.47, 0.00, 0.00, 0.00, 0.00, 0.00, 0.00, 0.00
1481, -197.46, -43.45, 0.00, 0.00, 0.00, 0.00, 0.00, 0.00, 0.00
1482, -203.67, -39.92, 0.00, 0.00, 0.00, 0.00, 0.00, 0.00, 0.00
1483, -206.93, -47.48, 0.00, 0.00, 0.00, 0.00, 0.00, 0.00, 0.00
1484, -215.43, -45.96, 0.00, 0.00, 0.00, 0.00, 0.00, 0.00, 0.00
1485, -223.76, -50.92, 0.00, 0.00, 0.00, 0.00, 0.00, 0.00, 0.00
1486, -223.32, -63.70, 0.00, 0.00, 0.00, 0.00, 0.00, 0.00, 0.00
1487, -225.04, -57.11, 0.00, 0.00, 0.00, 0.00, 0.00, 0.00, 0.00
1488, -225.95, -65.65, 0.00, 0.00, 0.00, 0.00, 0.00, 0.00, 0.00
1489, -228.10, -63.26, 0.00, 0.00, 0.00, 0.00, 0.00, 0.00, 0.00
1490, -230.56, -60.19, 0.00, 0.00, 0.00, 0.00, 0.00, 0.00, 0.00
1491, -228.19, -71.86, 0.00, 0.00, 0.00, 0.00, 0.00, 0.00, 0.00
1492, -232.64, -60.06, 0.00, 0.00, 0.00, 0.00, 0.00, 0.00, 0.00
1493, -230.04, -64.44, 0.00, 0.00, 0.00, 0.00, 0.00, 0.00, 0.00
1494, -235.36, -66.05, 0.00, 0.00, 0.00, 0.00, 0.00, 0.00, 0.00
1495, -237.91, -64.66, 0.00, 0.00, 0.00, 0.00, 0.00, 0.00, 0.00
1496, -234.34, -71.24, 0.00, 0.00, 0.00, 0.00, 0.00, 0.00, 0.00
1497, -239.19, -60.73, 0.00, 0.00, 0.00, 0.00, 0.00, 0.00, 0.00
1498, -237.15, -66.76, 0.00, 0.00, 0.00, 0.00, 0.00, 0.00, 0.00
1499, -234.00, -68.82, 0.00, 0.00, 0.00, 0.00, 0.00, 0.00, 0.00
1500, -230.04, -55.97, 0.00, 0.00, 0.00, 0.00, 0.00, 0.00, 0.00
1501, -228.52, -61.42, 0.00, 0.00, 0.00, 0.00, 0.00, 0.00, 0.00
1502, -229.62, -52.30, 0.00, 0.00, 0.00, 0.00, 0.00, 0.00, 0.00
1503, -225.86, -57.18, 0.00, 0.00, 0.00, 0.00, 0.00, 0.00, 0.00
1504, -226.76, -64.37, 0.00, 0.00, 0.00, 0.00, 0.00, 0.00, 0.00
1505, -230.36, -53.55, 0.00, 0.00, 0.00, 0.00, 0.00, 0.00, 0.00
1506, -227.83, -53.71, 0.00, 0.00, 0.00, 0.00, 0.00, 0.00, 0.00
1507, -228.99, -53.51, 0.00, 0.00, 0.00, 0.00, 0.00, 0.00, 0.00
1508, -229.73, -58.61, 0.00, 0.00, 0.00, 0.00, 0.00, 0.00, 0.00
1509, -229.17, -61.65, 0.00, 0.00, 0.00, 0.00, 0.00, 0.00, 0.00
1510, -231.85, -56.04, 0.00, 0.00, 0.00, 0.00, 0.00, 0.00, 0.00
1511, -230.25, -65.29, 0.00, 0.00, 0.00, 0.00, 0.00, 0.00, 0.00
1512, -232.86, -64.84, 0.00, 0.00, 0.00, 0.00, 0.00, 0.00, 0.00
1513, -232.95, -61.89, 0.00, 0.00, 0.00, 0.00, 0.00, 0.00, 0.00
1514, -233.42, -61.69, 0.00, 0.00, 0.00, 0.00, 0.00, 0.00, 0.00
1515, -234.81, -63.84, 0.00, 0.00, 0.00, 0.00, 0.00, 0.00, 0.00
1516, -232.79, -68.15, 0.00, 0.00, 0.00, 0.00, 0.00, 0.00, 0.00
1517, -234.56, -64.35, 0.00, 0.00, 0.00, 0.00, 0.00, 0.00, 0.00
1518, -231.45, -61.02, 0.00, 0.00, 0.00, 0.00, 0.00, 0.00, 0.00
1519, -228.32, -59.86, 0.00, 0.00, 0.00, 0.00, 0.00, 0.00, 0.00
1520, -227.47, -61.76, 0.00, 0.00, 0.00, 0.00, 0.00, 0.00, 0.00
1521, -224.64, -58.11, 0.00, 0.00, 0.00, 0.00, 0.00, 0.00, 0.00
1522, -227.45, -60.64, 0.00, 0.00, 0.00, 0.00, 0.00, 0.00, 0.00
1523, -227.97, -64.08, 0.00, 0.00, 0.00, 0.00, 0.00, 0.00, 0.00
1524, -227.76, -61.87, 0.00, 0.00, 0.00, 0.00, 0.00, 0.00, 0.00
1525, -229.49, -63.05, 0.00, 0.00, 0.00, 0.00, 0.00, 0.00, 0.00
1526, -228.81, -55.95, 0.00, 0.00, 0.00, 0.00, 0.00, 0.00, 0.00
1527, -225.48, -55.32, 0.00, 0.00, 0.00, 0.00, 0.00, 0.00, 0.00
1528, -226.42, -59.19, 0.00, 0.00, 0.00, 0.00, 0.00, 0.00, 0.00
1529, -228.17, -61.44, 0.00, 0.00, 0.00, 0.00, 0.00, 0.00, 0.00
1530, -227.79, -68.26, 0.00, 0.00, 0.00, 0.00, 0.00, 0.00, 0.00
1531, -229.53, -61.74, 0.00, 0.00, 0.00, 0.00, 0.00, 0.00, 0.00
1532, -231.09, -64.48, 0.00, 0.00, 0.00, 0.00, 0.00, 0.00, 0.00
1533, -229.55, -65.40, 0.00, 0.00, 0.00, 0.00, 0.00, 0.00, 0.00
1534, -227.99, -54.69, 0.00, 0.00, 0.00, 0.00, 0.00, 0.00, 0.00
1535, -227.99, -60.91, 0.00, 0.00, 0.00, 0.00, 0.00, 0.00, 0.00
1536, -226.31, -56.42, 0.00, 0.00, 0.00, 0.00, 0.00, 0.00, 0.00
1537, -227.94, -61.00, 0.00, 0.00, 0.00, 0.00, 0.00, 0.00, 0.00
1538, -228.48, -66.72, 0.00, 0.00, 0.00, 0.00, 0.00, 0.00, 0.00
1539, -230.18, -53.73, 0.00, 0.00, 0.00, 0.00, 0.00, 0.00, 0.00
1540, -227.47, -63.52, 0.00, 0.00, 0.00, 0.00, 0.00, 0.00, 0.00
1541, -230.71, -58.09, 0.00, 0.00, 0.00, 0.00, 0.00, 0.00, 0.00
1542, -230.47, -58.99, 0.00, 0.00, 0.00, 0.00, 0.00, 0.00, 0.00
1543, -228.88, -66.32, 0.00, 0.00, 0.00, 0.00, 0.00, 0.00, 0.00
1544, -231.81, -55.45, 0.00, 0.00, 0.00, 0.00, 0.00, 0.00, 0.00
1545, -229.64, -70.34, 0.00, 0.00, 0.00, 0.00, 0.00, 0.00, 0.00
1546, -230.31, -64.64, 0.00, 0.00, 0.00, 0.00, 0.00, 0.00, 0.00
1547, -230.33, -54.72, 0.00, 0.00, 0.00, 0.00, 0.00, 0.00, 0.00
1548, -228.57, -64.60, 0.00, 0.00, 0.00, 0.00, 0.00, 0.00, 0.00
1549, -231.52, -51.59, 0.00, 0.00, 0.00, 0.00, 0.00, 0.00, 0.00
1550, -229.11, -64.33, 0.00, 0.00, 0.00, 0.00, 0.00, 0.00, 0.00
1551, -233.71, -60.95, 0.00, 0.00, 0.00, 0.00, 0.00, 0.00, 0.00
1552, -231.94, -52.44, 0.00, 0.00, 0.00, 0.00, 0.00, 0.00, 0.00
1553, -227.81, -66.54, 0.00, 0.00, 0.00, 0.00, 0.00, 0.00, 0.00
1554, -233.73, -49.58, 0.00, 0.00, 0.00, 0.00, 0.00, 0.00, 0.00
1555, -229.82, -60.26, 0.00, 0.00, 0.00, 0.00, 0.00, 0.00, 0.00
1556, -230.54, -62.63, 0.00, 0.00, 0.00, 0.00, 0.00, 0.00, 0.00
1557, -233.98, -53.67, 0.00, 0.00, 0.00, 0.00, 0.00, 0.00, 0.00
1558, -228.55, -69.56, 0.00, 0.00, 0.00, 0.00, 0.00, 0.00, 0.00
1559, -232.15, -54.25, 0.00, 0.00, 0.00, 0.00, 0.00, 0.00, 0.00
1560, -229.71, -64.42, 0.00, 0.00, 0.00, 0.00, 0.00, 0.00, 0.00
1561, -229.73, -64.80, 0.00, 0.00, 0.00, 0.00, 0.00, 0.00, 0.00
1562, -230.31, -48.91, 0.00, 0.00, 0.00, 0.00, 0.00, 0.00, 0.00
1563, -226.38, -67.90, 0.00, 0.00, 0.00, 0.00, 0.00, 0.00, 0.00
1564, -233.04, -52.88, 0.00, 0.00, 0.00, 0.00, 0.00, 0.00, 0.00
1565, -227.21, -53.62, 0.00, 0.00, 0.00, 0.00, 0.00, 0.00, 0.00
1566, -226.00, -62.76, 0.00, 0.00, 0.00, 0.00, 0.00, 0.00, 0.00
1567, -234.94, -52.30, 0.00, 0.00, 0.00, 0.00, 0.00, 0.00, 0.00
1568, -230.02, -70.30, 0.00, 0.00, 0.00, 0.00, 0.00, 0.00, 0.00
1569, -233.11, -56.21, 0.00, 0.00, 0.00, 0.00, 0.00, 0.00, 0.00
1570, -233.87, -61.56, 0.00, 0.00, 0.00, 0.00, 0.00, 0.00, 0.00
1571, -231.79, -68.20, 0.00, 0.00, 0.00, 0.00, 0.00, 0.00, 0.00
1572, -232.57, -48.62, 0.00, 0.00, 0.00, 0.00, 0.00, 0.00, 0.00
1573, -227.47, -62.81, 0.00, 0.00, 0.00, 0.00, 0.00, 0.00, 0.00
1574, -229.37, -55.34, 0.00, 0.00, 0.00, 0.00, 0.00, 0.00, 0.00
1575, -224.99, -59.10, 0.00, 0.00, 0.00, 0.00, 0.00, 0.00, 0.00
1576, -222.27, -62.70, 0.00, 0.00, 0.00, 0.00, 0.00, 0.00, 0.00
1577, -226.89, -48.39, 0.00, 0.00, 0.00, 0.00, 0.00, 0.00, 0.00
1578, -221.98, -65.58, 0.00, 0.00, 0.00, 0.00, 0.00, 0.00, 0.00
1579, -227.09, -61.47, 0.00, 0.00, 0.00, 0.00, 0.00, 0.00, 0.00
1580, -229.82, -51.03, 0.00, 0.00, 0.00, 0.00, 0.00, 0.00, 0.00
1581, -229.17, -60.62, 0.00, 0.00, 0.00, 0.00, 0.00, 0.00, 0.00
1582, -233.91, -54.78, 0.00, 0.00, 0.00, 0.00, 0.00, 0.00, 0.00
1583, -227.05, -61.22, 0.00, 0.00, 0.00, 0.00, 0.00, 0.00, 0.00
1584, -229.19, -55.37, 0.00, 0.00, 0.00, 0.00, 0.00, 0.00, 0.00
1585, -228.79, -53.26, 0.00, 0.00, 0.00, 0.00, 0.00, 0.00, 0.00
1586, -226.60, -62.70, 0.00, 0.00, 0.00, 0.00, 0.00, 0.00, 0.00
1587, -234.69, -51.21, 0.00, 0.00, 0.00, 0.00, 0.00, 0.00, 0.00
1588, -228.68, -56.17, 0.00, 0.00, 0.00, 0.00, 0.00, 0.00, 0.00
1589, -232.41, -58.25, 0.00, 0.00, 0.00, 0.00, 0.00, 0.00, 0.00
1590, -233.24, -54.29, 0.00, 0.00, 0.00, 0.00, 0.00, 0.00, 0.00
1591, -227.21, -60.91, 0.00, 0.00, 0.00, 0.00, 0.00, 0.00, 0.00
1592, -232.61, -53.55, 0.00, 0.00, 0.00, 0.00, 0.00, 0.00, 0.00
1593, -229.28, -59.46, 0.00, 0.00, 0.00, 0.00, 0.00, 0.00, 0.00
1594, -232.99, -60.22, 0.00, 0.00, 0.00, 0.00, 0.00, 0.00, 0.00
1595, -234.20, -56.93, 0.00, 0.00, 0.00, 0.00, 0.00, 0.00, 0.00
1596, -229.93, -63.88, 0.00, 0.00, 0.00, 0.00, 0.00, 0.00, 0.00
1597, -233.91, -56.93, 0.00, 0.00, 0.00, 0.00, 0.00, 0.00, 0.00
1598, -230.27, -53.64, 0.00, 0.00, 0.00, 0.00, 0.00, 0.00, 0.00
1599, -230.29, -55.88, 0.00, 0.00, 0.00, 0.00, 0.00, 0.00, 0.00
1600, -231.72, -54.96, 0.00, 0.00, 0.00, 0.00, 0.00, 0.00, 0.00
1601, -228.01, -63.72, 0.00, 0.00, 0.00, 0.00, 0.00, 0.00, 0.00
1602, -232.01, -59.17, 0.00, 0.00, 0.00, 0.00, 0.00, 0.00, 0.00
1603, -231.27, -57.27, 0.00, 0.00, 0.00, 0.00, 0.00, 0.00, 0.00
1604, -232.41, -55.54, 0.00, 0.00, 0.00, 0.00, 0.00, 0.00, 0.00
1605, -231.23, -54.78, 0.00, 0.00, 0.00, 0.00, 0.00, 0.00, 0.00
1606, -228.35, -56.37, 0.00, 0.00, 0.00, 0.00, 0.00, 0.00, 0.00
1607, -229.24, -61.27, 0.00, 0.00, 0.00, 0.00, 0.00, 0.00, 0.00
1608, -228.84, -60.44, 0.00, 0.00, 0.00, 0.00, 0.00, 0.00, 0.00
1609, -226.69, -59.12, 0.00, 0.00, 0.00, 0.00, 0.00, 0.00, 0.00
1610, -232.75, -61.11, 0.00, 0.00, 0.00, 0.00, 0.00, 0.00, 0.00
1611, -236.68, -59.41, 0.00, 0.00, 0.00, 0.00, 0.00, 0.00, 0.00
1612, -229.75, -57.65, 0.00, 0.00, 0.00, 0.00, 0.00, 0.00, 0.00
1613, -224.23, -59.70, 0.00, 0.00, 0.00, 0.00, 0.00, 0.00, 0.00
1614, -220.52, -59.17, 0.00, 0.00, 0.00, 0.00, 0.00, 0.00, 0.00
1615, -206.51, -56.73, 0.00, 0.00, 0.00, 0.00, 0.00, 0.00, 0.00
1616, -199.20, -48.66, 0.00, 0.00, 0.00, 0.00, 0.00, 0.00, 0.00
1617, -195.51, -52.79, 0.00, 0.00, 0.00, 0.00, 0.00, 0.00, 0.00
1618, -190.39, -55.34, 0.00, 0.00, 0.00, 0.00, 0.00, 0.00, 0.00
1619, -183.55, -48.91, 0.00, 0.00, 0.00, 0.00, 0.00, 0.00, 0.00
1620, -177.00, -52.73, 0.00, 0.00, 0.00, 0.00, 0.00, 0.00, 0.00
1621, -170.28, -45.80, 0.00, 0.00, 0.00, 0.00, 0.00, 0.00, 0.00
1622, -164.73, -46.07, 0.00, 0.00, 0.00, 0.00, 0.00, 0.00, 0.00
1623, -168.47, -45.66, 0.00, 0.00, 0.00, 0.00, 0.00, 0.00, 0.00
1624, -167.01, -40.46, 0.00, 0.00, 0.00, 0.00, 0.00, 0.00, 0.00
1625, -165.85, -50.02, 0.00, 0.00, 0.00, 0.00, 0.00, 0.00, 0.00
1626, -168.85, -47.65, 0.00, 0.00, 0.00, 0.00, 0.00, 0.00, 0.00
1627, -168.91, -48.19, 0.00, 0.00, 0.00, 0.00, 0.00, 0.00, 0.00
1628, -167.62, -52.93, 0.00, 0.00, 0.00, 0.00, 0.00, 0.00, 0.00
1629, -169.74, -43.38, 0.00, 0.00, 0.00, 0.00, 0.00, 0.00, 0.00
1630, -171.97, -52.08, 0.00, 0.00, 0.00, 0.00, 0.00, 0.00, 0.00
1631, -171.28, -47.61, 0.00, 0.00, 0.00, 0.00, 0.00, 0.00, 0.00
1632, -169.87, -45.31, 0.00, 0.00, 0.00, 0.00, 0.00, 0.00, 0.00
1633, -168.87, -52.95, 0.00, 0.00, 0.00, 0.00, 0.00, 0.00, 0.00
1634, -171.37, -42.74, 0.00, 0.00, 0.00, 0.00, 0.00, 0.00, 0.00
1635, -166.34, -48.30, 0.00, 0.00, 0.00, 0.00, 0.00, 0.00, 0.00
1636, -169.83, -40.46, 0.00, 0.00, 0.00, 0.00, 0.00, 0.00, 0.00
1637, -168.11, -33.10, 0.00, 0.00, 0.00, 0.00, 0.00, 0.00, 0.00
1638, -164.29, -46.16, 0.00, 0.00, 0.00, 0.00, 0.00, 0.00, 0.00
1639, -165.96, -36.88, 0.00, 0.00, 0.00, 0.00, 0.00, 0.00, 0.00
1640, -163.23, -47.14, 0.00, 0.00, 0.00, 0.00, 0.00, 0.00, 0.00
1641, -166.12, -46.16, 0.00, 0.00, 0.00, 0.00, 0.00, 0.00, 0.00
1642, -169.16, -41.64, 0.00, 0.00, 0.00, 0.00, 0.00, 0.00, 0.00
1643, -165.74, -50.29, 0.00, 0.00, 0.00, 0.00, 0.00, 0.00, 0.00
1644, -171.44, -37.73, 0.00, 0.00, 0.00, 0.00, 0.00, 0.00, 0.00
1645, -169.40, -48.79, 0.00, 0.00, 0.00, 0.00, 0.00, 0.00, 0.00
1646, -172.18, -50.89, 0.00, 0.00, 0.00, 0.00, 0.00, 0.00, 0.00
1647, -171.75, -42.07, 0.00, 0.00, 0.00, 0.00, 0.00, 0.00, 0.00
1648, -164.24, -50.00, 0.00, 0.00, 0.00, 0.00, 0.00, 0.00, 0.00
1649, -170.10, -39.45, 0.00, 0.00, 0.00, 0.00, 0.00, 0.00, 0.00
1650, -167.46, -41.46, 0.00, 0.00, 0.00, 0.00, 0.00, 0.00, 0.00
1651, -168.87, -44.12, 0.00, 0.00, 0.00, 0.00, 0.00, 0.00, 0.00
1652, -173.54, -41.02, 0.00, 0.00, 0.00, 0.00, 0.00, 0.00, 0.00
1653, -171.24, -50.38, 0.00, 0.00, 0.00, 0.00, 0.00, 0.00, 0.00
1654, -175.71, -41.10, 0.00, 0.00, 0.00, 0.00, 0.00, 0.00, 0.00
1655, -169.76, -45.84, 0.00, 0.00, 0.00, 0.00, 0.00, 0.00, 0.00
1656, -170.59, -46.83, 0.00, 0.00, 0.00, 0.00, 0.00, 0.00, 0.00
1657, -171.57, -38.13, 0.00, 0.00, 0.00, 0.00, 0.00, 0.00, 0.00
1658, -167.39, -45.87, 0.00, 0.00, 0.00, 0.00, 0.00, 0.00, 0.00
1659, -171.37, -40.99, 0.00, 0.00, 0.00, 0.00, 0.00, 0.00, 0.00
1660, -170.19, -41.84, 0.00, 0.00, 0.00, 0.00, 0.00, 0.00, 0.00
1661, -167.10, -43.05, 0.00, 0.00, 0.00, 0.00, 0.00, 0.00, 0.00
1662, -172.15, -36.97, 0.00, 0.00, 0.00, 0.00, 0.00, 0.00, 0.00
1663, -169.56, -45.55, 0.00, 0.00, 0.00, 0.00, 0.00, 0.00, 0.00
1664, -169.61, -44.21, 0.00, 0.00, 0.00, 0.00, 0.00, 0.00, 0.00
1665, -169.16, -40.61, 0.00, 0.00, 0.00, 0.00, 0.00, 0.00, 0.00
1666, -169.49, -44.99, 0.00, 0.00, 0.00, 0.00, 0.00, 0.00, 0.00
1667, -171.01, -38.15, 0.00, 0.00, 0.00, 0.00, 0.00, 0.00, 0.00
1668, -167.97, -44.75, 0.00, 0.00, 0.00, 0.00, 0.00, 0.00, 0.00
1669, -171.48, -39.45, 0.00, 0.00, 0.00, 0.00, 0.00, 0.00, 0.00
1670, -168.13, -39.47, 0.00, 0.00, 0.00, 0.00, 0.00, 0.00, 0.00
1671, -166.52, -45.84, 0.00, 0.00, 0.00, 0.00, 0.00, 0.00, 0.00
1672, -169.61, -38.78, 0.00, 0.00, 0.00, 0.00, 0.00, 0.00, 0.00
1673, -165.13, -42.42, 0.00, 0.00, 0.00, 0.00, 0.00, 0.00, 0.00
1674, -170.07, -38.29, 0.00, 0.00, 0.00, 0.00, 0.00, 0.00, 0.00
1675, -169.76, -37.60, 0.00, 0.00, 0.00, 0.00, 0.00, 0.00, 0.00
1676, -167.71, -38.24, 0.00, 0.00, 0.00, 0.00, 0.00, 0.00, 0.00
1677, -175.46, -29.66, 0.00, 0.00, 0.00, 0.00, 0.00, 0.00, 0.00
1678, -177.32, -38.53, 0.00, 0.00, 0.00, 0.00, 0.00, 0.00, 0.00
1679, -175.37, -34.02, 0.00, 0.00, 0.00, 0.00, 0.00, 0.00, 0.00
1680, -175.26, -24.97, 0.00, 0.00, 0.00, 0.00, 0.00, 0.00, 0.00
1681, -171.75, -23.60, 0.00, 0.00, 0.00, 0.00, 0.00, 0.00, 0.00
1682, -166.50, -13.77, 0.00, 0.00, 0.00, 0.00, 0.00, 0.00, 0.00
1683, -159.08, -4.40, 0.00, 0.00, 0.00, 0.00, 0.00, 0.00, 0.00
1684, -165.45, -0.18, 0.00, 0.00, 0.00, 0.00, 0.00, 0.00, 0.00
1685, -165.96, 2.35, 0.00, 0.00, 0.00, 0.00, 0.00, 0.00, 0.00
1686, -169.29, 2.57, 0.00, 0.00, 0.00, 0.00, 0.00, 0.00, 0.00
1687, -168.33, 6.03, 0.00, 0.00, 0.00, 0.00, 0.00, 0.00, 0.00
1688, -167.88, 1.90, 0.00, 0.00, 0.00, 0.00, 0.00, 0.00, 0.00
1689, -173.32, 2.93, 0.00, 0.00, 0.00, 0.00, 0.00, 0.00, 0.00
1690, -168.35, 4.36, 0.00, 0.00, 0.00, 0.00, 0.00, 0.00, 0.00
1691, -169.67, -0.49, 0.00, 0.00, 0.00, 0.00, 0.00, 0.00, 0.00
1692, -172.09, -3.17, 0.00, 0.00, 0.00, 0.00, 0.00, 0.00, 0.00
1693, -168.62, 0.65, 0.00, 0.00, 0.00, 0.00, 0.00, 0.00, 0.00
1694, -166.74, 9.23, 0.00, 0.00, 0.00, 0.00, 0.00, 0.00, 0.00
1695, -163.32, 6.06, 0.00, 0.00, 0.00, 0.00, 0.00, 0.00, 0.00
1696, -170.03, -2.21, 0.00, 0.00, 0.00, 0.00, 0.00, 0.00, 0.00
1697, -170.57, 0.63, 0.00, 0.00, 0.00, 0.00, 0.00, 0.00, 0.00
1698, -169.25, -1.30, 0.00, 0.00, 0.00, 0.00, 0.00, 0.00, 0.00
1699, -172.44, -5.12, 0.00, 0.00, 0.00, 0.00, 0.00, 0.00, 0.00
1700, -173.34, -7.49, 0.00, 0.00, 0.00, 0.00, 0.00, 0.00, 0.00
1701, -172.26, -1.68, 0.00, 0.00, 0.00, 0.00, 0.00, 0.00, 0.00
1702, -172.18, 3.44, 0.00, 0.00, 0.00, 0.00, 0.00, 0.00, 0.00
1703, -172.35, -2.08, 0.00, 0.00, 0.00, 0.00, 0.00, 0.00, 0.00
1704, -177.18, -5.68, 0.00, 0.00, 0.00, 0.00, 0.00, 0.00, 0.00
1705, -175.35, -6.97, 0.00, 0.00, 0.00, 0.00, 0.00, 0.00, 0.00
1706, -178.57, -8.49, 0.00, 0.00, 0.00, 0.00, 0.00, 0.00, 0.00
1707, -180.89, -8.25, 0.00, 0.00, 0.00, 0.00, 0.00, 0.00, 0.00
1708, -180.96, -7.29, 0.00, 0.00, 0.00, 0.00, 0.00, 0.00, 0.00
1709, -183.87, -6.73, 0.00, 0.00, 0.00, 0.00, 0.00, 0.00, 0.00
1710, -182.64, -8.61, 0.00, 0.00, 0.00, 0.00, 0.00, 0.00, 0.00
1711, -183.78, -10.35, 0.00, 0.00, 0.00, 0.00, 0.00, 0.00, 0.00
1712, -183.22, -9.41, 0.00, 0.00, 0.00, 0.00, 0.00, 0.00, 0.00
1713, -184.33, -12.45, 0.00, 0.00, 0.00, 0.00, 0.00, 0.00, 0.00
1714, -186.28, -14.26, 0.00, 0.00, 0.00, 0.00, 0.00, 0.00, 0.00
1715, -182.23, -14.37, 0.00, 0.00, 0.00, 0.00, 0.00, 0.00, 0.00
1716, -184.56, -15.67, 0.00, 0.00, 0.00, 0.00, 0.00, 0.00, 0.00
1717, -183.84, -13.34, 0.00, 0.00, 0.00, 0.00, 0.00, 0.00, 0.00
1718, -181.32, -11.80, 0.00, 0.00, 0.00, 0.00, 0.00, 0.00, 0.00
1719, -181.50, -9.77, 0.00, 0.00, 0.00, 0.00, 0.00, 0.00, 0.00
1720, -179.13, -11.96, 0.00, 0.00, 0.00, 0.00, 0.00, 0.00, 0.00
1721, -179.66, -15.36, 0.00, 0.00, 0.00, 0.00, 0.00, 0.00, 0.00
1722, -180.98, -14.75, 0.00, 0.00, 0.00, 0.00, 0.00, 0.00, 0.00
1723, -178.55, -16.94, 0.00, 0.00, 0.00, 0.00, 0.00, 0.00, 0.00
1724, -179.60, -17.21, 0.00, 0.00, 0.00, 0.00, 0.00, 0.00, 0.00
1725, -178.34, -14.10, 0.00, 0.00, 0.00, 0.00, 0.00, 0.00, 0.00
1726, -179.33, -13.30, 0.00, 0.00, 0.00, 0.00, 0.00, 0.00, 0.00
1727, -181.00, -18.15, 0.00, 0.00, 0.00, 0.00, 0.00, 0.00, 0.00
1728, -180.49, -19.13, 0.00, 0.00, 0.00, 0.00, 0.00, 0.00, 0.00
1729, -181.41, -14.93, 0.00, 0.00, 0.00, 0.00, 0.00, 0.00, 0.00
1730, -180.07, -11.49, 0.00, 0.00, 0.00, 0.00, 0.00, 0.00, 0.00
1731, -178.26, -12.72, 0.00, 0.00, 0.00, 0.00, 0.00, 0.00, 0.00
1732, -178.43, -14.01, 0.00, 0.00, 0.00, 0.00, 0.00, 0.00, 0.00
1733, -180.18, -13.90, 0.00, 0.00, 0.00, 0.00, 0.00, 0.00, 0.00
1734, -183.66, -20.81, 0.00, 0.00, 0.00, 0.00, 0.00, 0.00, 0.00
1735, -182.77, -16.32, 0.00, 0.00, 0.00, 0.00, 0.00, 0.00, 0.00
1736, -183.35, -16.09, 0.00, 0.00, 0.00, 0.00, 0.00, 0.00, 0.00
1737, -182.17, -15.29, 0.00, 0.00, 0.00, 0.00, 0.00, 0.00, 0.00
1738, -179.10, -11.65, 0.00, 0.00, 0.00, 0.00, 0.00, 0.00, 0.00
1739, -179.08, -18.86, 0.00, 0.00, 0.00, 0.00, 0.00, 0.00, 0.00
1740, -179.35, -17.10, 0.00, 0.00, 0.00, 0.00, 0.00, 0.00, 0.00
1741, -181.23, -19.67, 0.00, 0.00, 0.00, 0.00, 0.00, 0.00, 0.00
1742, -181.59, -22.98, 0.00, 0.00, 0.00, 0.00, 0.00, 0.00, 0.00
1743, -184.45, -15.67, 0.00, 0.00, 0.00, 0.00, 0.00, 0.00, 0.00
1744, -184.51, -21.14, 0.00, 0.00, 0.00, 0.00, 0.00, 0.00, 0.00
1745, -183.95, -17.77, 0.00, 0.00, 0.00, 0.00, 0.00, 0.00, 0.00
1746, -184.85, -18.44, 0.00, 0.00, 0.00, 0.00, 0.00, 0.00, 0.00
1747, -182.97, -21.48, 0.00, 0.00, 0.00, 0.00, 0.00, 0.00, 0.00
1748, -183.62, -17.32, 0.00, 0.00, 0.00, 0.00, 0.00, 0.00, 0.00
1749, -185.74, -25.59, 0.00, 0.00, 0.00, 0.00, 0.00, 0.00, 0.00
1750, -185.09, -22.02, 0.00, 0.00, 0.00, 0.00, 0.00, 0.00, 0.00
1751, -185.94, -19.80, 0.00, 0.00, 0.00, 0.00, 0.00, 0.00, 0.00
1752, -185.36, -22.80, 0.00, 0.00, 0.00, 0.00, 0.00, 0.00, 0.00
1753, -183.49, -18.22, 0.00, 0.00, 0.00, 0.00, 0.00, 0.00, 0.00
1754, -182.32, -23.38, 0.00, 0.00, 0.00, 0.00, 0.00, 0.00, 0.00
1755, -182.77, -19.80, 0.00, 0.00, 0.00, 0.00, 0.00, 0.00, 0.00
1756, -184.31, -21.21, 0.00, 0.00, 0.00, 0.00, 0.00, 0.00, 0.00
1757, -181.27, -26.31, 0.00, 0.00, 0.00, 0.00, 0.00, 0.00, 0.00
1758, -180.60, -16.94, 0.00, 0.00, 0.00, 0.00, 0.00, 0.00, 0.00
1759, -182.26, -21.14, 0.00, 0.00, 0.00, 0.00, 0.00, 0.00, 0.00
1760, -178.34, -18.78, 0.00, 0.00, 0.00, 0.00, 0.00, 0.00, 0.00
1761, -180.91, -17.90, 0.00, 0.00, 0.00, 0.00, 0.00, 0.00, 0.00
1762, -182.14, -24.21, 0.00, 0.00, 0.00, 0.00, 0.00, 0.00, 0.00
1763, -183.02, -13.28, 0.00, 0.00, 0.00, 0.00, 0.00, 0.00, 0.00
1764, -181.67, -18.44, 0.00, 0.00, 0.00, 0.00, 0.00, 0.00, 0.00
1765, -178.41, -15.65, 0.00, 0.00, 0.00, 0.00, 0.00, 0.00, 0.00
1766, -179.73, -12.79, 0.00, 0.00, 0.00, 0.00, 0.00, 0.00, 0.00
1767, -179.42, -19.24, 0.00, 0.00, 0.00, 0.00, 0.00, 0.00, 0.00
1768, -181.18, -17.19, 0.00, 0.00, 0.00, 0.00, 0.00, 0.00, 0.00
1769, -183.71, -23.04, 0.00, 0.00, 0.00, 0.00, 0.00, 0.00, 0.00
1770, -184.74, -22.02, 0.00, 0.00, 0.00, 0.00, 0.00, 0.00, 0.00
1771, -185.27, -21.44, 0.00, 0.00, 0.00, 0.00, 0.00, 0.00, 0.00
1772, -185.12, -25.84, 0.00, 0.00, 0.00, 0.00, 0.00, 0.00, 0.00
1773, -187.35, -22.42, 0.00, 0.00, 0.00, 0.00, 0.00, 0.00, 0.00
1774, -187.62, -25.57, 0.00, 0.00, 0.00, 0.00, 0.00, 0.00, 0.00
1775, -186.30, -26.33, 0.00, 0.00, 0.00, 0.00, 0.00, 0.00, 0.00
1776, -187.53, -24.54, 0.00, 0.00, 0.00, 0.00, 0.00, 0.00, 0.00
1777, -182.81, -25.64, 0.00, 0.00, 0.00, 0.00, 0.00, 0.00, 0.00
1778, -183.60, -21.82, 0.00, 0.00, 0.00, 0.00, 0.00, 0.00, 0.00
1779, -182.32, -22.73, 0.00, 0.00, 0.00, 0.00, 0.00, 0.00, 15.00
1780, -181.88, -26.38, 0.00, 0.00, 0.00, 0.00, 0.00, 0.00, 15.00
1781, -185.25, -25.59, 0.00, 0.00, 0.00, 0.00, 0.00, 0.00, 15.00
1782, -184.51, -27.45, 0.00, 0.00, 0.00, 0.00, 0.00, 0.00, 15.00
1783, -184.20, -25.93, 0.00, 0.00, 0.00, 0.00, 0.00, 0.00, 15.00
1784, -186.66, -29.12, 0.00, 0.00, 0.00, 0.00, 0.00, 0.00, 15.00
1785, -187.60, -26.40, 0.00, 0.00, 0.00, 0.00, 0.00, 0.00, 15.00
1786, -186.79, -23.67, 0.00, 0.00, 0.00, 0.00, 0.00, 0.00, 15.00
1787, -185.83, -22.55, 0.00, 0.00, 0.00, 0.00, 0.00, 0.00, 15.00
1788, -187.08, -25.88, 0.00, 0.00, 0.00, 0.00, 0.00, 0.00, 15.00
1789, -183.40, -24.92, 0.00, 0.00, 0.00, 0.00, 0.00, 0.00, 15.00
1790, -185.07, -18.82, 0.00, 0.00, 0.00, 0.00, 0.00, 0.00, 15.00
1791, -186.66, -26.62, 0.00, 0.00, 0.00, 0.00, 0.00, 0.00, 15.00
1792, -186.46, -27.94, 0.00, 0.00, 0.00, 0.00, 0.00, 0.00, 15.00
1793, -188.36, -26.93, 0.00, 0.00, 0.00, 0.00, 0.00, 0.00, 15.00
1794, -185.88, -26.02, 0.00, 0.00, 0.00, 0.00, 0.00, 0.00, 15.00
1795, -182.52, -19.60, 0.00, 0.00, 0.00, 0.00, 0.00, 0.00, 15.00
1796, -179.06, -23.45, 0.00, 0.00, 0.00, 0.00, 0.00, 0.00, 15.00
1797, -180.02, -17.52, 0.00, 0.00, 0.00, 0.00, 0.00, 0.00, 15.00
1798, -178.95, -17.17, 0.00, 0.00, 0.00, 0.00, 0.00, 0.00, 15.00
1799, -180.58, -21.57, 0.00, 0.00, 0.00, 0.00, 0.00, 0.00, 15.00
1800, -182.46, -17.90, 0.00, 0.00, 0.00, 0.00, 0.00, 0.00, 15.00
1801, -186.48, -27.22, 0.00, 0.00, 0.00, 0.00, 0.00, 0.00, 15.00
1802, -186.26, -21.35, 0.00, 0.00, 0.00, 0.00, 0.00, 0.00, 15.00
1803, -185.23, -15.22, 0.00, 0.00, 0.00, 0.00, 0.00, 0.00, 15.00
1804, -186.82, -27.16, 0.00, 0.00, 0.00, 0.00, 0.00, 0.00, 15.00
1805, -186.97, -23.07, 0.00, 0.00, 0.00, 0.00, 0.00, 0.00, 15.00
1806, -187.84, -28.45, 0.00, 0.00, 0.00, 0.00, 0.00, 0.00, 15.00
1807, -184.92, -25.79, 0.00, 0.00, 0.00, 0.00, 0.00, 0.00, 15.00
1808, -184.63, -20.88, 0.00, 0.00, 0.00, 0.00, 0.00, 0.00, 15.00
1809, -184.80, -29.66, 0.00, 0.00, 0.00, 0.00, 0.00, 0.00, 15.00
1810, -186.93, -20.85, 0.00, 0.00, 0.00, 0.00, 0.00, 0.00, 15.00
1811, -184.00, -22.02, 0.00, 0.00, 0.00, 0.00, 0.00, 0.00, 15.00
1812, -182.90, -23.00, 0.00, 0.00, 0.00, 0.00, 0.00, 0.00, 15.00
1813, -184.98, -18.53, 0.00, 0.00, 0.00, 0.00, 0.00, 0.00, 15.00
1814, -181.59, -26.26, 0.00, 0.00, 0.00, 0.00, 0.00, 0.00, 15.00
1815, -179.80, -15.31, 0.00, 0.00, 0.00, 0.00, 0.00, 0.00, 15.00
1816, -181.47, -21.14, 0.00, 0.00, 0.00, 0.00, 0.00, 0.00, 15.00
1817, -184.80, -25.82, 0.00, 0.00, 0.00, 0.00, 0.00, 0.00, 15.00
1818, -186.50, -22.08, 0.00, 0.00, 0.00, 0.00, 0.00, 0.00, 15.00
1819, -182.81, -30.15, 0.00, 0.00, 0.00, 0.00, 0.00, 0.00, 15.00
1820, -188.11, -20.68, 0.00, 0.00, 0.00, 0.00, 0.00, 0.00, 15.00
1821, -183.66, -24.03, 0.00, 0.00, 0.00, 0.00, 0.00, 0.00, 15.00
1822, -181.14, -26.06, 0.00, 0.00, 0.00, 0.00, 0.00, 0.00, 15.00
1823, -184.54, -16.25, 0.00, 0.00, 0.00, 0.00, 0.00, 0.00, 15.00
1824, -182.26, -30.26, 0.00, 0.00, 0.00, 0.00, 0.00, 0.00, 15.00
1825, -185.18, -25.01, 0.00, 0.00, 0.00, 0.00, 0.00, 0.00, 15.00
1826, -184.71, -22.11, 0.00, 0.00, 0.00, 0.00, 0.00, 0.00, 15.00
1827, -185.05, -26.51, 0.00, 0.00, 0.00, 0.00, 0.00, 0.00, 15.00
1828, -189.92, -18.86, 0.00, 0.00, 0.00, 0.00, 0.00, 0.00, 15.00
1829, -185.99, -30.00, 0.00, 0.00, 0.00, 0.00, 0.00, 0.00, 15.00
1830, -187.80, -27.34, 0.00, 0.00, 0.00, 0.00, 0.00, 0.00, 15.00
1831, -186.48, -25.77, 0.00, 0.00, 0.00, 0.00, 0.00, 0.00, 15.00
1832, -185.56, -26.67, 0.00, 0.00, 0.00, 0.00, 0.00, 0.00, 15.00
1833, -188.02, -15.65, 0.00, 0.00, 0.00, 0.00, 0.00, 0.00, 15.00
1834, -184.74, -24.79, 0.00, 0.00, 0.00, 0.00, 0.00, 0.00, 15.00
1835, -188.92, -22.96, 0.00, 0.00, 0.00, 0.00, 0.00, 0.00, 15.00
1836, -187.87, -22.06, 0.00, 0.00, 0.00, 0.00, 0.00, 0.00, 15.00
1837, -185.21, -32.39, 0.00, 0.00, 0.00, 0.00, 0.00, 0.00, 15.00
1838, -186.50, -19.65, 0.00, 0.00, 0.00, 0.00, 0.00, 0.00, 15.00
1839, -179.48, -21.90, 0.00, 0.00, 0.00, 0.00, 0.00, 0.00, 15.00
1840, -178.23, -17.81, 0.00, 0.00, 0.00, 0.00, 0.00, 0.00, 15.00
1841, -180.51, -16.63, 0.00, 0.00, 0.00, 0.00, 0.00, 0.00, 15.00
1842, -178.95, -24.86, 0.00, 0.00, 0.00, 0.00, 0.00, 0.00, 15.00
1843, -181.07, -18.55, 0.00, 0.00, 0.00, 0.00, 0.00, 0.00, 15.00
1844, -178.99, -25.59, 0.00, 0.00, 0.00, 0.00, 0.00, 0.00, 15.00
1845, -181.65, -20.83, 0.00, 0.00, 0.00, 0.00, 0.00, 0.00, 15.00
1846, -182.01, -18.19, 0.00, 0.00, 0.00, 0.00, 0.00, 0.00, 15.00
1847, -177.85, -28.54, 0.00, 0.00, 0.00, 0.00, 0.00, 0.00, 15.00
1848, -181.83, -18.06, 0.00, 0.00, 0.00, 0.00, 0.00, 0.00, 15.00
1849, -178.81, -19.45, 0.00, 0.00, 0.00, 0.00, 0.00, 0.00, 15.00
1850, -182.14, -20.99, 0.00, 0.00, 0.00, 0.00, 0.00, 0.00, 15.00
1851, -180.69, -20.97, 0.00, 0.00, 0.00, 0.00, 0.00, 0.00, 15.00
1852, -176.65, -25.50, 0.00, 0.00, 0.00, 0.00, 0.00, 0.00, 15.00
1853, -182.43, -20.70, 0.00, 0.00, 0.00, 0.00, 0.00, 0.00, 15.00
1854, -180.36, -23.13, 0.00, 0.00, 0.00, 0.00, 0.00, 0.00, 15.00
1855, -180.85, -20.54, 0.00, 0.00, 0.00, 0.00, 0.00, 0.00, 15.00
1856, -179.40, -21.44, 0.00, 0.00, 0.00, 0.00, 0.00, 0.00, 15.00
1857, -179.22, -28.65, 0.00, 0.00, 0.00, 0.00, 0.00, 0.00, 15.00
1858, -180.80, -24.54, 0.00, 0.00, 0.00, 0.00, 0.00, 0.00, 15.00
1859, -177.14, -25.01, 0.00, 0.00, 0.00, 0.00, 0.00, 0.00, 15.00
1860, -179.73, -22.87, 0.00, 0.00, 0.00, 0.00, 0.00, 0.00, 15.00
1861, -177.00, -21.88, 0.00, 0.00, 0.00, 0.00, 0.00, 0.00, 15.00
1862, -175.60, -21.32, 0.00, 0.00, 0.00, 0.00, 0.00, 0.00, 15.00
1863, -176.33, -20.50, 0.00, 0.00, 0.00, 0.00, 0.00, 0.00, 15.00
1864, -174.37, -24.01, 0.00, 0.00, 0.00, 0.00, 0.00, 0.00, 15.00
1865, -176.13, -20.21, 0.00, 0.00, 0.00, 0.00, 0.00, 0.00, 15.00
1866, -175.86, -23.20, 0.00, 0.00, 0.00, 0.00, 0.00, 0.00, 15.00
1867, -175.93, -18.57, 0.00, 0.00, 0.00, 0.00, 0.00, 0.00, 15.00
1868, -175.64, -20.79, 0.00, 0.00, 0.00, 0.00, 0.00, 0.00, 15.00
1869, -173.99, -22.75, 0.00, 0.00, 0.00, 0.00, 0.00, 0.00, 15.00
1870, -175.26, -16.85, 0.00, 0.00, 0.00, 0.00, 0.00, 0.00, 15.00
1871, -174.92, -30.24, 0.00, 0.00, 0.00, 0.00, 0.00, 0.00, 15.00
1872, -177.88, -19.42, 0.00, 0.00, 0.00, 0.00, 0.00, 0.00, 15.00
1873, -179.08, -21.48, 0.00, 0.00, 0.00, 0.00, 0.00, 0.00, 15.00
1874, -179.46, -31.20, 0.00, 0.00, 0.00, 0.00, 0.00, 0.00, 15.00
1875, -180.85, -20.74, 0.00, 0.00, 0.00, 0.00, 0.00, 0.00, 15.00
1876, -179.15, -30.15, 0.00, 0.00, 0.00, 0.00, 0.00, 0.00, 15.00
1877, -180.85, -20.63, 0.00, 0.00, 0.00, 0.00, 0.00, 0.00, 15.00
1878, -180.60, -25.73, 0.00, 0.00, 0.00, 0.00, 0.00, 0.00, 15.00
1879, -178.84, -34.22, 0.00, 0.00, 0.00, 0.00, 0.00, 0.00, 15.00
1880, -182.52, -21.28, 0.00, 0.00, 0.00, 0.00, 0.00, 0.00, 15.00
1881, -178.81, -36.63, 0.00, 0.00, 0.00, 0.00, 0.00, 0.00, 15.00
